TimeStamp,Delta_TP9,Delta_AF7,Delta_AF8,Delta_TP10,Theta_TP9,Theta_AF7,Theta_AF8,Theta_TP10,Alpha_TP9,Alpha_AF7,Alpha_AF8,Alpha_TP10,Beta_TP9,Beta_AF7,Beta_AF8,Beta_TP10,Gamma_TP9,Gamma_AF7,Gamma_AF8,Gamma_TP10,RAW_TP9,RAW_AF7,RAW_AF8,RAW_TP10,AUX_RIGHT,Accelerometer_X,Accelerometer_Y,Accelerometer_Z,Gyro_X,Gyro_Y,Gyro_Z,HeadBandOn,HSI_TP9,HSI_AF7,HSI_AF8,HSI_TP10,Battery,Elements
2020-04-08 10:32:49.593,0.9853687,0.8212516,1.2378335,0.8655028,0.49038896,-0.032915667,-0.19715388,0.40873456,0.42318293,0.2900934,0.119247355,0.5897287,0.6172825,0.1276423,-0.0012056599,0.6839299,0.46012896,0.08202329,-0.347326,0.3688983,550.40295,743.00366,699.0842,281.64835,771.6117,-0.107177734375,0.02593994140625,0.97271728515625,0.560760498046875,-0.949554443359375,7.409515380859375,1,2.0,1.0,1.0,2.0,40.00
2020-04-08 10:32:50.366,,,,,,,,,,,,,,,,,,,,,,,,,,,,,,,,,,,,,,/muse/elements/blink
2020-04-08 10:32:50.599,0.9853687,0.8212516,1.2378335,0.8655028,0.49038896,-0.032915667,-0.19715388,0.40873456,0.42318293,0.2900934,0.119247355,0.5897287,0.6172825,0.1276423,-0.0012056599,0.6839299,0.46012896,0.08202329,-0.347326,0.3688983,625.34796,763.5531,728.49817,520.18317,829.2308,-0.03436279296875,0.1204833984375,1.02001953125,2.7813720703125,-14.303131103515625,12.344207763671875,1,2.0,1.0,1.0,2.0,40.00
2020-04-08 10:32:51.136,,,,,,,,,,,,,,,,,,,,,,,,,,,,,,,,,,,,,,/muse/elements/blink
2020-04-08 10:32:51.514,,,,,,,,,,,,,,,,,,,,,,,,,,,,,,,,,,,,,,/muse/elements/jaw_clench
2020-04-08 10:32:51.604,,,,,,,,,,,,,,,,,,,,,,,,,,,,,,,,,,,,,,/muse/elements/blink
2020-04-08 10:32:51.605,0.9853687,0.515586,1.0602459,0.8655028,0.49038896,-0.0326768,0.3951988,0.40873456,0.42318293,0.52627635,0.11685531,0.5897287,0.6172825,0.55371636,0.24685395,0.6839299,0.46012896,0.35405967,-0.20819364,0.3688983,649.92676,545.56775,706.337,945.6777,803.0403,0.0653076171875,0.13177490234375,0.9935302734375,-3.581390380859375,3.372039794921875,-15.91064453125,1,2.0,1.0,1.0,2.0,40.00
2020-04-08 10:32:52.223,,,,,,,,,,,,,,,,,,,,,,,,,,,,,,,,,,,,,,/muse/elements/blink
2020-04-08 10:32:52.614,0.9853687,0.27734515,1.1078614,0.8655028,0.49038896,0.025583975,0.417315,0.40873456,0.42318293,0.5060206,0.02991898,0.5897287,0.6172825,0.6050563,0.2542891,0.6839299,0.46012896,0.35218474,-0.2156669,0.3688983,865.4945,732.9304,774.0293,749.45056,772.4176,0.07958984375,0.0479736328125,0.99810791015625,5.944061279296875,-2.280426025390625,-28.509063720703125,1,2.0,1.0,1.0,2.0,40.00
2020-04-08 10:32:53.039,,,,,,,,,,,,,,,,,,,,,,,,,,,,,,,,,,,,,,/muse/elements/blink
2020-04-08 10:32:53.556,,,,,,,,,,,,,,,,,,,,,,,,,,,,,,,,,,,,,,/muse/elements/blink
2020-04-08 10:32:53.621,0.9853687,0.27734515,1.1078614,0.8655028,0.49038896,0.025583975,0.417315,0.40873456,0.42318293,0.5060206,0.02991898,0.5897287,0.6172825,0.6050563,0.2542891,0.6839299,0.46012896,0.35218474,-0.2156669,0.3688983,847.76556,770.0,865.4945,0.0,801.8315,-0.0093994140625,0.01153564453125,1.012451171875,-10.03387451171875,13.690032958984375,37.615814208984375,1,2.0,1.0,1.0,2.0,40.00
2020-04-08 10:32:53.771,,,,,,,,,,,,,,,,,,,,,,,,,,,,,,,,,,,,,,/muse/elements/blink
2020-04-08 10:32:54.165,,,,,,,,,,,,,,,,,,,,,,,,,,,,,,,,,,,,,,/muse/elements/blink
2020-04-08 10:32:54.338,,,,,,,,,,,,,,,,,,,,,,,,,,,,,,,,,,,,,,/muse/elements/blink
2020-04-08 10:32:54.633,0.9853687,0.27734515,1.1078614,0.8655028,0.49038896,0.025583975,0.417315,0.40873456,0.42318293,0.5060206,0.02991898,0.5897287,0.6172825,0.6050563,0.2542891,0.6839299,0.46012896,0.35218474,-0.2156669,0.3688983,865.4945,776.4469,780.4762,742.6007,825.2015,-0.0916748046875,0.0518798828125,0.98638916015625,-0.276641845703125,4.5758056640625,0.979461669921875,1,2.0,1.0,1.0,2.0,40.00
2020-04-08 10:32:54.643,,,,,,,,,,,,,,,,,,,,,,,,,,,,,,,,,,,,,,/muse/elements/blink
2020-04-08 10:32:55.241,,,,,,,,,,,,,,,,,,,,,,,,,,,,,,,,,,,,,,/muse/elements/blink
2020-04-08 10:32:55.643,0.9853687,0.7921932,1.1078614,0.8655028,0.49038896,0.98957056,0.417315,0.40873456,0.42318293,0.9974345,0.02991898,0.5897287,0.6172825,0.9154499,0.2542891,0.6839299,0.46012896,0.7746325,-0.2156669,0.3688983,983.5531,1463.4432,824.7985,1164.8718,900.9524,-0.147705078125,0.0487060546875,1.006591796875,2.7215576171875,-3.2000732421875,13.6376953125,1,2.0,1.0,1.0,2.0,40.00
2020-04-08 10:32:55.777,,,,,,,,,,,,,,,,,,,,,,,,,,,,,,,,,,,,,,/muse/elements/blink
2020-04-08 10:32:56.652,0.9853687,0.75928354,1.0046583,0.8655028,0.49038896,1.0381665,0.5864532,0.40873456,0.42318293,0.98128325,0.64480424,0.5897287,0.6172825,0.93218875,0.31756836,0.6839299,0.46012896,0.7607174,0.030571591,0.3688983,930.3663,823.5897,825.2015,1097.1794,838.0952,-0.1505126953125,0.0506591796875,0.97076416015625,1.084136962890625,0.16448974609375,3.349609375,1,2.0,1.0,1.0,2.0,40.00
2020-04-08 10:32:56.895,,,,,,,,,,,,,,,,,,,,,,,,,,,,,,,,,,,,,,/muse/elements/blink
2020-04-08 10:32:57.658,1.4985557,0.75928354,0.59963834,0.7610244,0.9910651,1.0381665,0.3925469,0.89857584,1.0468881,0.98128325,0.64885694,1.2645818,0.6923845,0.93218875,0.30854693,0.86337113,0.21283287,0.7607174,-0.04426932,0.49275246,942.8571,855.0183,828.4249,1147.1428,907.3993,-0.1346435546875,0.0447998046875,0.970458984375,1.457977294921875,-0.545806884765625,4.732818603515625,1,1.0,1.0,1.0,1.0,40.00
2020-04-08 10:32:58.247,,,,,,,,,,,,,,,,,,,,,,,,,,,,,,,,,,,,,,/muse/elements/blink
2020-04-08 10:32:58.514,,,,,,,,,,,,,,,,,,,,,,,,,,,,,,,,,,,,,,/muse/elements/blink
2020-04-08 10:32:58.662,1.3354211,0.42487785,0.5039286,0.9458287,0.9833193,0.17008483,0.18947577,0.89133763,0.9749317,0.55067694,0.5299685,1.2125632,0.6714317,0.5994422,0.23389731,0.8623066,0.17831081,0.40933618,0.018382864,0.46679792,929.5604,834.4689,813.1135,1140.2931,816.337,-0.14630126953125,0.02203369140625,0.967041015625,2.848663330078125,3.03558349609375,1.4654541015625,1,1.0,1.0,1.0,1.0,40.00
2020-04-08 10:32:59.672,1.3354211,0.60115975,1.0033399,0.9458287,0.9833193,0.2626728,0.47287723,0.89133763,0.9749317,0.6748924,0.46310353,1.2125632,0.6714317,0.6113573,0.29137012,0.8623066,0.17831081,0.44156837,0.15312298,0.46679792,916.6667,852.1978,813.1135,1061.7216,929.9634,-0.17431640625,0.05810546875,0.97198486328125,1.42059326171875,-0.19439697265625,5.57769775390625,1,1.0,1.0,1.0,1.0,40.00
2020-04-08 10:33:00.680,1.1788514,0.7808296,0.6187055,0.39708433,0.7835753,0.5052235,0.121926464,0.51478374,0.7087574,0.89150405,0.3036845,0.5365256,0.46238074,0.6980844,0.31277764,0.3340674,0.15545635,0.89515406,0.18835206,0.312038,954.5421,858.24176,823.5897,1131.8315,833.663,-0.16424560546875,0.0382080078125,0.9595947265625,0.994415283203125,0.067291259765625,3.372039794921875,1,1.0,1.0,1.0,1.0,40.00
2020-04-08 10:33:00.733,,,,,,,,,,,,,,,,,,,,,,,,,,,,,,,,,,,,,,/muse/elements/blink
2020-04-08 10:33:00.967,,,,,,,,,,,,,,,,,,,,,,,,,,,,,,,,,,,,,,/muse/elements/blink
2020-04-08 10:33:01.578,,,,,,,,,,,,,,,,,,,,,,,,,,,,,,,,,,,,,,/muse/elements/blink
2020-04-08 10:33:01.681,1.193234,0.43138015,0.46331102,0.36805862,0.7374345,0.48071226,0.18804134,0.5829019,0.63963425,0.90899205,0.5017657,0.53224313,0.5114882,0.7633774,0.36921546,0.3635951,0.16804503,0.9766403,0.04930501,0.33584502,875.56775,844.94507,823.9927,942.0513,877.1795,-0.17547607421875,0.09088134765625,0.9796142578125,1.128997802734375,-6.841278076171875,8.590850830078125,1,1.0,1.0,1.0,1.0,40.00
2020-04-08 10:33:02.687,1.193234,0.4446728,0.8265138,0.36805862,0.7374345,0.29146066,0.2955853,0.5829019,0.63963425,0.5152735,0.7165552,0.53224313,0.5114882,0.9166017,0.2579107,0.3635951,0.16804503,0.959597,0.018820597,0.33584502,806.26373,741.39197,753.0769,652.3443,748.24176,-0.18914794921875,0.0540771484375,0.9556884765625,2.332763671875,-4.239349365234375,6.47491455078125,1,1.0,1.0,1.0,1.0,40.00
2020-04-08 10:33:02.819,,,,,,,,,,,,,,,,,,,,,,,,,,,,,,,,,,,,,,/muse/elements/blink
2020-04-08 10:33:03.688,0.8327934,0.53099716,0.5514348,0.65655285,0.7887252,0.19356827,0.6168272,0.67039454,0.88116956,0.41888908,0.88586295,0.8516392,0.6014293,1.0250553,0.30600685,0.6921619,-0.058273405,0.7370257,-0.15093155,0.2519972,842.9304,779.2674,790.9524,776.04395,711.1722,-0.13946533203125,0.06072998046875,0.98040771484375,0.0299072265625,0.43365478515625,5.09918212890625,1,1.0,1.0,1.0,1.0,40.00
2020-04-08 10:33:03.771,,,,,,,,,,,,,,,,,,,,,,,,,,,,,,,,,,,,,,/muse/elements/blink
2020-04-08 10:33:04.400,,,,,,,,,,,,,,,,,,,,,,,,,,,,,,,,,,,,,,/muse/elements/blink
2020-04-08 10:33:04.713,0.9978182,0.5374183,0.63936734,0.72748435,0.8647515,0.5876125,0.5154736,0.48834592,1.0330554,0.593464,0.7375817,0.9426563,0.5992322,0.98929495,0.30688044,0.78442913,0.14512384,0.7032657,0.0053672036,0.22671272,875.16486,787.326,797.8022,884.0293,779.2674,-0.1278076171875,0.05743408203125,0.98406982421875,1.727142333984375,3.342132568359375,4.777679443359375,1,1.0,1.0,1.0,1.0,40.00
2020-04-08 10:33:04.807,,,,,,,,,,,,,,,,,,,,,,,,,,,,,,,,,,,,,,/muse/elements/blink
2020-04-08 10:33:05.141,,,,,,,,,,,,,,,,,,,,,,,,,,,,,,,,,,,,,,/muse/elements/blink
2020-04-08 10:33:05.516,,,,,,,,,,,,,,,,,,,,,,,,,,,,,,,,,,,,,,/muse/elements/blink
2020-04-08 10:33:05.721,1.2236681,0.560581,0.6493678,1.0552862,1.4972839,0.6109941,0.40304026,0.22904545,1.5236104,0.5737279,0.5161754,0.75412256,0.6331707,0.9983172,0.34218237,0.48468804,0.27714407,0.68154573,0.124484494,0.3445206,746.63007,738.5714,749.85345,606.4103,732.9304,-0.31048583984375,0.0374755859375,0.94140625,2.27294921875,1.682281494140625,3.386993408203125,1,1.0,1.0,1.0,1.0,40.00
2020-04-08 10:33:05.743,,,,,,,,,,,,,,,,,,,,,,,,,,,,,,,,,,,,,,/muse/elements/blink
2020-04-08 10:33:06.226,,,,,,,,,,,,,,,,,,,,,,,,,,,,,,,,,,,,,,/muse/elements/blink
2020-04-08 10:33:06.451,,,,,,,,,,,,,,,,,,,,,,,,,,,,,,,,,,,,,,/muse/elements/blink
2020-04-08 10:33:06.625,,,,,,,,,,,,,,,,,,,,,,,,,,,,,,,,,,,,,,/muse/elements/blink
2020-04-08 10:33:06.727,1.267159,0.560581,0.34308627,1.0552862,1.5655805,0.6109941,0.26798698,0.22904545,1.6367258,0.5737279,0.26255724,0.75412256,0.8064589,0.9983172,0.37621742,0.48468804,0.3171938,0.68154573,-0.035587683,0.3445206,731.31866,726.08057,733.3333,506.48352,639.45056,-0.2459716796875,0.05413818359375,0.9537353515625,0.889739990234375,-0.61309814453125,3.57391357421875,1,1.0,1.0,1.0,1.0,40.00
2020-04-08 10:33:07.070,,,,,,,,,,,,,,,,,,,,,,,,,,,,,,,,,,,,,,/muse/elements/blink
2020-04-08 10:33:07.734,1.0098077,0.44853717,0.53339636,0.80009013,0.84326696,0.0075192773,0.10386035,0.6909744,1.3225654,-0.05038415,0.22735187,0.6287228,0.80054486,0.32383904,-0.050877836,0.6995678,0.30788407,0.30294138,-0.4180072,0.46773598,725.6777,733.73627,752.27106,554.83514,750.2564,-0.2001953125,0.08758544921875,0.9486083984375,1.5850830078125,0.874786376953125,4.269256591796875,1,1.0,1.0,1.0,1.0,40.00
2020-04-08 10:33:08.545,,,,,,,,,,,,,,,,,,,,,,,,,,,,,,,,,,,,,,/muse/elements/blink
2020-04-08 10:33:08.742,1.2042693,0.87218815,0.90706027,0.8468998,0.8215486,0.4369677,0.43390447,0.63713306,0.8839263,0.67093223,0.5275848,0.6043783,0.49670154,0.22291864,0.06365457,0.65707666,0.102965936,0.15799917,-0.305937,0.45394507,751.06226,747.4359,742.6007,587.0696,696.6667,-0.2344970703125,0.06610107421875,0.9410400390625,2.594451904296875,4.605712890625,0.441131591796875,1,1.0,1.0,1.0,1.0,40.00
2020-04-08 10:33:08.797,,,,,,,,,,,,,,,,,,,,,,,,,,,,,,,,,,,,,,/muse/elements/blink
2020-04-08 10:33:09.181,,,,,,,,,,,,,,,,,,,,,,,,,,,,,,,,,,,,,,/muse/elements/blink
2020-04-08 10:33:09.589,,,,,,,,,,,,,,,,,,,,,,,,,,,,,,,,,,,,,,/muse/elements/blink
2020-04-08 10:33:09.754,1.1417857,0.90014786,0.9269127,1.3125999,0.6778334,0.44304696,0.5249506,0.89159375,0.92196476,0.68706954,0.61561894,1.197154,0.670785,0.52694887,0.09675291,0.811162,0.45283622,0.35964864,-0.31486136,0.30761415,703.5165,725.2747,759.92676,549.19415,679.34064,-0.2388916015625,0.0408935546875,0.9415283203125,0.351409912109375,0.059814453125,11.9329833984375,1,1.0,1.0,1.0,1.0,40.00
2020-04-08 10:33:10.307,,,,,,,,,,,,,,,,,,,,,,,,,,,,,,,,,,,,,,/muse/elements/blink
2020-04-08 10:33:10.767,1.1417857,0.4607886,1.0360959,1.3916707,0.6778334,0.37864473,0.4178992,1.0404364,0.92196476,0.40956312,0.49094334,1.1830727,0.670785,0.8859924,0.07010511,0.8633259,0.45283622,0.5529284,-0.20354044,0.34594136,724.0659,738.1685,754.2857,577.8022,685.38464,-0.24810791015625,0.0672607421875,0.97149658203125,-5.42816162109375,8.471221923828125,8.426361083984375,1,1.0,1.0,1.0,1.0,40.00
2020-04-08 10:33:11.341,,,,,,,,,,,,,,,,,,,,,,,,,,,,,,,,,,,,,,/muse/elements/blink
2020-04-08 10:33:11.775,0.4426125,0.35290405,0.8363692,1.3916707,0.4005613,0.2854913,0.91631806,1.0404364,0.51102424,0.5257643,0.44592154,1.1830727,0.551351,0.756892,0.030703219,0.8633259,0.1362374,0.49538463,-0.27209294,0.34594136,697.0696,743.8095,788.1319,563.69965,651.13556,-0.28076171875,-0.010986328125,0.92535400390625,11.686248779296875,-19.761199951171875,10.8563232421875,1,1.0,1.0,1.0,1.0,40.00
2020-04-08 10:33:12.675,,,,,,,,,,,,,,,,,,,,,,,,,,,,,,,,,,,,,,/muse/elements/blink
2020-04-08 10:33:12.811,0.4426125,0.84259176,0.9032363,0.7861028,0.4005613,0.3209504,0.9632305,0.73289406,0.51102424,0.5914436,0.462929,0.24135347,0.551351,0.36367455,-0.027967177,0.4751392,0.1362374,0.22770005,-0.18448246,0.08118201,738.5714,760.7326,768.7912,724.0659,686.5934,-0.193359375,0.033935546875,0.9188232421875,2.729034423828125,-2.9608154296875,8.889923095703125,1,1.0,1.0,1.0,1.0,40.00
2020-04-08 10:33:13.829,0.9716426,0.68213737,1.2296336,0.8404338,0.5583333,0.10065157,0.4788976,0.6221069,0.5947546,0.17578664,0.2420849,0.2810732,0.53306365,0.17967674,0.066805676,0.4443883,0.52480596,0.10708772,-0.1654868,0.1954599,705.9341,767.98535,754.68866,666.4469,719.2308,-0.12689208984375,0.04351806640625,1.02667236328125,4.11224365234375,2.22808837890625,2.1832275390625,1,1.0,1.0,1.0,1.0,40.00
2020-04-08 10:33:14.835,0.88329494,0.7161814,0.93309546,0.247778,0.33573604,0.32390067,0.40652406,0.16822128,0.5894688,0.4357205,0.27098837,0.49071464,0.49118745,0.37997714,0.025934549,0.6842111,0.44043142,0.36430046,-0.13604769,0.2602215,789.7436,800.6227,790.14655,866.30035,801.4286,-0.13397216796875,0.06719970703125,0.96533203125,1.323394775390625,-3.491668701171875,0.710296630859375,1,1.0,1.0,1.0,1.0,40.00
2020-04-08 10:33:15.861,0.70266455,0.56691325,0.5099633,0.2645479,0.53073037,0.46195748,0.06773165,0.18866886,0.7562303,0.5150347,0.37348187,0.8033302,0.6776397,0.51985306,0.023918498,0.5828742,0.34527746,0.4763056,-0.3169674,0.2048109,865.09155,837.6923,808.68134,1017.8022,790.54944,-0.20880126953125,0.0670166015625,0.9974365234375,3.386993408203125,13.510589599609375,7.3870849609375,1,1.0,1.0,1.0,1.0,40.00
2020-04-08 10:33:16.474,,,,,,,,,,,,,,,,,,,,,,,,,,,,,,,,,,,,,,/muse/elements/blink
2020-04-08 10:33:16.873,0.80076045,0.5560751,0.74366134,0.6321759,0.8352493,0.6497743,0.32747817,0.71081287,0.7445026,0.451758,0.3524169,0.7558033,0.6442677,0.4576132,0.058729094,0.4417803,0.337521,0.32168764,-0.21966551,0.20149197,851.39197,808.68134,770.0,985.16486,940.4396,-0.23895263671875,0.10009765625,0.9718017578125,3.566436767578125,-7.0281982421875,13.929290771484375,1,1.0,1.0,1.0,1.0,40.00
2020-04-08 10:33:17.874,0.96268827,0.5831876,1.0083114,0.9039216,1.0368106,0.8122495,0.59170026,0.95835894,0.5734312,0.30068788,0.2789095,0.36567503,0.5842294,0.31310543,0.053519916,0.47094136,0.37775514,0.38675702,-0.2853901,0.22246312,882.8205,838.9011,800.2198,1002.8938,824.7985,-0.150634765625,0.0426025390625,0.96746826171875,-1.07666015625,-1.95892333984375,-0.73272705078125,1,1.0,1.0,1.0,1.0,40.00
2020-04-08 10:33:18.876,0.96268827,0.5831876,1.0083114,1.2136384,1.0368106,0.8122495,0.59170026,0.5967876,0.5734312,0.30068788,0.2789095,0.81390524,0.5842294,0.31310543,0.053519916,0.57121885,0.37775514,0.38675702,-0.2853901,0.22887307,904.17584,844.5421,807.8755,1009.34064,820.3663,-0.14202880859375,0.03045654296875,0.977783203125,2.489776611328125,1.637420654296875,1.772003173828125,1,1.0,1.0,1.0,1.0,40.00
2020-04-08 10:33:18.944,,,,,,,,,,,,,,,,,,,,,,,,,,,,,,,,,,,,,,/muse/elements/blink
2020-04-08 10:33:19.425,,,,,,,,,,,,,,,,,,,,,,,,,,,,,,,,,,,,,,/muse/elements/blink
2020-04-08 10:33:19.876,0.96268827,0.5831876,1.0083114,1.116423,1.0368106,0.8122495,0.59170026,0.88152575,0.5734312,0.30068788,0.2789095,1.059682,0.5842294,0.31310543,0.053519916,0.6535725,0.37775514,0.38675702,-0.2853901,0.17623357,912.6374,878.7912,808.68134,1042.7839,848.5714,-0.19427490234375,0.0321044921875,0.96624755859375,2.280426025390625,7.77587890625,1.443023681640625,1,1.0,1.0,1.0,1.0,40.00
2020-04-08 10:33:20.880,1.3207222,0.5831876,1.159421,0.95181966,1.1375684,0.8122495,1.1037425,0.7301738,0.9901436,0.30068788,0.09931115,0.9065642,0.8321028,0.31310543,0.11537901,0.6764537,0.46810243,0.38675702,0.22258094,0.21238117,919.4872,892.0879,867.50916,973.47986,866.7033,-0.22174072265625,0.09912109375,1.0047607421875,2.73651123046875,-10.011444091796875,1.375732421875,1,1.0,1.0,1.0,1.0,40.00
2020-04-08 10:33:20.973,,,,,,,,,,,,,,,,,,,,,,,,,,,,,,,,,,,,,,/muse/elements/blink
2020-04-08 10:33:21.887,1.3105279,0.5831876,1.159421,1.121146,1.0591648,0.8122495,1.1037425,0.7200178,1.0082817,0.30068788,0.09931115,0.9157204,0.8516892,0.31310543,0.11537901,0.75368273,0.45643663,0.38675702,0.22258094,0.2412256,897.326,830.84247,818.3516,998.86444,730.9158,-0.14532470703125,0.038330078125,0.9578857421875,1.966400146484375,1.472930908203125,4.717864990234375,1,1.0,1.0,1.0,1.0,40.00
2020-04-08 10:33:22.463,,,,,,,,,,,,,,,,,,,,,,,,,,,,,,,,,,,,,,/muse/elements/blink
2020-04-08 10:33:22.901,0.85269356,0.5831876,0.87505656,0.6219705,0.45367065,0.8122495,0.40815586,0.30912215,0.1330774,0.30068788,0.30093545,0.5099014,0.6820456,0.31310543,0.28713223,0.6242694,0.3204481,0.38675702,0.014797081,0.26049662,815.5311,785.31134,746.63007,777.25275,784.90845,0.1741943359375,0.06658935546875,1.28302001953125,1.906585693359375,8.471221923828125,5.443115234375,1,1.0,1.0,1.0,1.0,40.00
2020-04-08 10:33:23.681,,,,,,,,,,,,,,,,,,,,,,,,,,,,,,,,,,,,,,/muse/elements/blink
2020-04-08 10:33:23.905,0.8952814,0.5831876,0.60667306,0.6219705,0.45672473,0.8122495,0.3796881,0.30912215,0.048437186,0.30068788,0.27355975,0.5099014,0.628241,0.31310543,0.31904444,0.6242694,0.29873925,0.38675702,0.026143147,0.26049662,823.1868,774.0293,741.39197,818.3516,841.31866,-0.1822509765625,0.015625,1.37298583984375,2.220611572265625,6.280517578125,6.467437744140625,1,1.0,1.0,1.0,1.0,40.00
2020-04-08 10:33:24.913,0.8952814,0.5831876,0.60667306,0.6219705,0.45672473,0.8122495,0.3796881,0.30912215,0.048437186,0.30068788,0.27355975,0.5099014,0.628241,0.31310543,0.31904444,0.6242694,0.29873925,0.38675702,0.026143147,0.26049662,789.34064,765.9707,812.3077,835.2747,649.92676,-0.10125732421875,0.09808349609375,1.0701904296875,0.306549072265625,4.6356201171875,46.37115478515625,1,1.0,1.0,1.0,1.0,40.00
2020-04-08 10:33:25.916,0.8952814,0.5831876,0.60667306,0.6219705,0.45672473,0.8122495,0.3796881,0.30912215,0.048437186,0.30068788,0.27355975,0.5099014,0.628241,0.31310543,0.31904444,0.6242694,0.29873925,0.38675702,0.026143147,0.26049662,842.52747,809.4872,810.293,1011.75824,998.86444,0.00347900390625,-0.19622802734375,0.528076171875,-10.534820556640625,-7.46185302734375,50.10955810546875,1,2.0,1.0,1.0,2.0,40.00
2020-04-08 10:33:26.319,,,,,,,,,,,,,,,,,,,,,,,,,,,,,,,,,,,,,,/muse/elements/blink
2020-04-08 10:33:26.918,1.489669,1.2481946,0.60667306,0.6219705,1.4733044,1.4789767,0.3796881,0.30912215,1.774992,1.4901778,0.27355975,0.5099014,1.1053847,0.6276996,0.31904444,0.6242694,0.56859964,-0.008415637,0.026143147,0.26049662,783.69965,808.2784,794.57874,737.3626,830.0366,0.3402099609375,-0.097900390625,0.582275390625,-9.630126953125,15.245208740234375,-26.8865966796875,1,1.0,1.0,1.0,1.0,40.00
2020-04-08 10:33:27.071,,,,,,,,,,,,,,,,,,,,,,,,,,,,,,,,,,,,,,/muse/elements/blink
2020-04-08 10:33:27.269,,,,,,,,,,,,,,,,,,,,,,,,,,,,,,,,,,,,,,/muse/elements/blink
2020-04-08 10:33:27.919,1.54181,1.1717775,0.60667306,0.6219705,1.5142131,1.3440197,0.3796881,0.30912215,1.774992,1.4972513,0.27355975,0.5099014,1.0819635,0.53725344,0.31904444,0.6242694,0.57174426,-0.07988102,0.026143147,0.26049662,763.1502,751.06226,756.30035,730.10986,861.4652,-0.0321044921875,0.05413818359375,1.15252685546875,1.278533935546875,-6.811370849609375,-5.9515380859375,1,1.0,1.0,1.0,1.0,40.00
2020-04-08 10:33:28.465,,,,,,,,,,,,,,,,,,,,,,,,,,,,,,,,,,,,,,/muse/elements/blink
2020-04-08 10:33:28.920,1.54181,1.0492721,0.60667306,0.6219705,1.5142131,0.96239245,0.3796881,0.30912215,1.774992,1.287499,0.27355975,0.5099014,1.0819635,0.38987762,0.31904444,0.6242694,0.57174426,-0.15838791,0.026143147,0.26049662,793.7729,798.20514,868.315,814.7253,859.0476,-0.25714111328125,0.0523681640625,0.80621337890625,-1.173858642578125,7.31231689453125,4.852447509765625,1,1.0,1.0,1.0,1.0,40.00
2020-04-08 10:33:29.924,1.54181,1.0492721,0.60667306,0.6219705,1.5142131,0.96239245,0.3796881,0.30912215,1.774992,1.287499,0.27355975,0.5099014,1.0819635,0.38987762,0.31904444,0.6242694,0.57174426,-0.15838791,0.026143147,0.26049662,823.1868,792.1612,791.3553,767.5824,799.011,-0.1595458984375,0.06549072265625,0.98681640625,8.411407470703125,6.998291015625,15.02838134765625,1,2.0,1.0,1.0,2.0,40.00
2020-04-08 10:33:30.939,1.0912741,0.88826954,0.60667306,0.6219705,0.8074134,0.62735134,0.3796881,0.30912215,0.48742703,0.5573813,0.27355975,0.5099014,0.36776227,0.3317347,0.31904444,0.6242694,0.5190564,-0.118425876,0.026143147,0.26049662,816.337,782.8938,778.46155,847.3626,762.3443,-0.196044921875,-0.04840087890625,0.97393798828125,6.10107421875,5.271148681640625,0.456085205078125,1,1.0,1.0,1.0,1.0,40.00
2020-04-08 10:33:31.948,0.7599243,0.8681122,0.8741375,0.9598893,0.5323908,0.53321856,0.5545127,0.5300406,0.6725113,0.6128257,0.57179576,0.64446855,0.6398926,0.33029982,-0.1361629,0.57784384,0.60081476,0.037568904,-0.35084057,0.36388314,786.9231,786.9231,777.6557,795.78754,837.6923,-0.13055419921875,0.0013427734375,1.0091552734375,2.1832275390625,-1.577606201171875,6.29547119140625,1,1.0,1.0,1.0,1.0,40.00
2020-04-08 10:33:32.562,,,,,,,,,,,,,,,,,,,,,,,,,,,,,,,,,,,,,,/muse/elements/blink
2020-04-08 10:33:32.959,0.64664227,0.7907514,0.8370954,0.8797377,0.48701653,0.6530353,0.37869045,0.7037633,0.66569835,0.72063786,0.44392172,0.639648,0.70863247,0.3468965,-0.036773242,0.6331604,0.56805956,0.06355311,-0.35374123,0.30776647,802.6374,787.326,772.01465,793.7729,900.14655,-0.1414794921875,0.0408935546875,0.95025634765625,-1.951446533203125,-2.071075439453125,3.768310546875,1,1.0,1.0,1.0,1.0,40.00
2020-04-08 10:33:33.779,,,,,,,,,,,,,,,,,,,,,,,,,,,,,,,,,,,,,,/muse/elements/blink
2020-04-08 10:33:33.971,0.75601524,1.0084339,1.0039451,0.8529264,0.52214587,0.63145965,0.1535732,0.67331916,0.45019206,0.75831264,0.41979352,0.50198853,0.65414244,0.48115063,0.0701552,0.6304301,0.4303717,0.10310042,-0.31119928,0.3017009,836.08057,810.293,782.49084,839.707,737.76556,-0.130859375,0.0028076171875,0.97607421875,4.000091552734375,-1.772003173828125,2.5421142578125,1,1.0,1.0,1.0,1.0,40.00
2020-04-08 10:33:34.983,0.75601524,1.0231184,0.72317564,0.8529264,0.52214587,0.41008884,0.17266534,0.67331916,0.45019206,0.5216262,0.5064093,0.50198853,0.65414244,0.424688,0.0037708508,0.6304301,0.4303717,0.11571431,-0.43560618,0.3017009,776.8498,784.10254,773.6264,778.86444,861.06226,-0.01336669921875,-0.143310546875,0.91717529296875,4.254302978515625,5.084228515625,1.951446533203125,1,2.0,1.0,1.0,2.0,40.00
2020-04-08 10:33:35.997,0.6679894,0.6887902,0.45377553,0.46195,0.4477635,0.13484327,0.29624087,0.63867617,0.69342554,0.5067682,0.47596052,0.63874406,0.72373164,0.3617234,-0.014434468,0.67394197,0.23459347,0.10346996,-0.51060194,0.23727557,790.9524,795.38464,786.52014,787.326,713.5897,-0.15020751953125,0.03173828125,0.93365478515625,-0.814971923828125,5.929107666015625,4.0673828125,1,1.0,1.0,1.0,1.0,40.00
2020-04-08 10:33:36.999,0.75349057,0.78896576,0.72785074,0.8220845,0.6916664,0.50377756,0.3983243,0.61718243,0.7614373,0.70523894,0.31124514,0.75412613,0.63503087,0.6599345,0.16589415,0.5400229,0.26174572,0.36191517,-0.23647864,0.25904897,772.4176,794.57874,778.0586,775.2381,818.7546,-0.14251708984375,0.04058837890625,0.97283935546875,1.36077880859375,-2.51220703125,4.284210205078125,1,1.0,1.0,1.0,1.0,40.00
2020-04-08 10:33:38.000,0.9917793,0.9634378,1.0661693,0.9995527,0.81278634,0.59832907,0.4983242,0.58337396,0.7098414,0.7191967,0.25062194,0.7496894,0.6004648,0.64603543,0.15732792,0.5215816,0.2802002,0.4200962,-0.16447279,0.20417652,804.2491,778.0586,766.3736,810.293,847.3626,-0.1273193359375,0.0341796875,0.97454833984375,4.972076416015625,-10.549774169921875,5.076751708984375,1,1.0,1.0,1.0,1.0,40.00
2020-04-08 10:33:39.007,0.63287824,0.7297088,1.0349863,0.9203812,0.5514714,0.17578347,0.3161319,0.42611215,1.0175264,0.4356811,0.32945415,1.4728255,0.6340932,0.17577887,-0.025861999,0.5374334,0.47013643,0.023824837,-0.32804412,0.16236454,776.4469,774.83514,779.67035,790.14655,688.60803,-0.14886474609375,0.0460205078125,0.98089599609375,1.98883056640625,1.734619140625,6.243133544921875,1,1.0,1.0,1.0,1.0,40.00
2020-04-08 10:33:40.021,0.8251967,0.4354547,0.7556008,1.0259904,0.77011454,0.05356165,0.18043762,0.83964026,1.0901297,0.30310678,0.5961175,1.5857981,0.5469877,0.18761052,0.019306367,0.52206445,0.3763251,-0.03715082,-0.32397813,0.08122764,766.3736,779.67035,782.8938,764.35895,727.6923,-0.14654541015625,0.02069091796875,0.96697998046875,2.684173583984375,1.21124267578125,4.029998779296875,1,1.0,1.0,1.0,1.0,40.00
2020-04-08 10:33:41.022,0.8312862,0.6829415,0.5681122,0.9066778,0.80862725,0.14780997,0.2916495,0.9618632,1.3129607,0.3982658,0.7072306,1.4630575,0.5881124,0.11313585,-0.030751806,0.5502583,0.17910074,-0.030010732,-0.6185134,0.007853471,771.6117,794.57874,795.38464,780.07324,769.19415,-0.1376953125,0.0399169921875,0.9615478515625,2.041168212890625,1.18133544921875,4.029998779296875,1,1.0,1.0,1.0,1.0,40.00
2020-04-08 10:33:42.024,0.7810812,0.64569145,0.22951002,0.50782347,0.73735595,0.042697374,0.39744547,0.8189377,1.2732135,0.2594815,0.67525417,1.3835446,0.4558464,0.13611783,-0.08748612,0.45337147,0.14770752,-0.25403795,-0.61378485,0.022794258,789.7436,782.49084,776.8498,792.1612,859.0476,-0.13336181640625,0.0338134765625,0.97607421875,1.83929443359375,0.4486083984375,4.85992431640625,1,1.0,1.0,1.0,1.0,40.00
2020-04-08 10:33:43.027,0.4466587,0.10899085,0.53724927,0.55613977,0.4943167,-0.3360229,0.093321666,0.67591035,1.1634463,-0.0043241577,0.4328372,1.3931638,0.3580535,0.1463156,-0.04835488,0.36913806,0.22099736,-0.12798876,-0.6381109,0.21163754,798.20514,799.011,800.6227,785.31134,774.83514,-0.12322998046875,0.031005859375,0.97039794921875,1.682281494140625,0.2691650390625,3.96270751953125,1,1.0,1.0,1.0,1.0,40.00
2020-04-08 10:33:44.041,0.7831555,0.4844925,0.8466096,0.9575494,0.6984619,0.10136446,0.009867889,0.9904345,1.4499643,0.21641791,0.306366,1.35001,0.6216115,0.050599787,-7.9120276E-4,0.44493753,0.053779915,-0.07437139,-0.4144402,0.2097746,785.31134,801.02563,786.9231,790.14655,768.7912,-0.10595703125,0.04180908203125,0.9803466796875,0.874786376953125,0.844879150390625,4.702911376953125,1,1.0,1.0,1.0,1.0,40.00
2020-04-08 10:33:45.065,0.9352341,0.38226518,0.56495935,0.89948875,0.8342528,-0.009359097,-0.06347471,0.8775916,1.3963239,0.31516433,0.31359497,1.2783004,0.5135685,0.16427001,0.0028265943,0.41676342,0.10630957,-0.1165696,-0.46421418,0.25056037,773.22345,777.6557,790.14655,783.69965,855.82416,-0.09356689453125,0.04461669921875,0.9859619140625,1.42059326171875,0.04486083984375,4.0374755859375,1,1.0,1.0,1.0,1.0,40.00
2020-04-08 10:33:46.080,0.4473993,0.26779243,0.17054056,0.66308826,0.8887244,-0.009939592,0.1465372,0.9321142,0.9071968,0.3976265,0.33739004,1.1951019,0.4059863,0.1475475,-0.1004139,0.5032341,0.024703104,-0.07805522,-0.5949654,0.12990838,780.87915,786.1172,778.86444,806.6667,728.0952,-0.08819580078125,0.03594970703125,0.98602294921875,1.114044189453125,0.605621337890625,3.57391357421875,1,1.0,1.0,1.0,1.0,40.00
2020-04-08 10:33:47.088,0.65036076,0.22500741,0.39164454,0.4602005,0.9012704,-0.08885918,0.3313796,0.73962563,0.99942565,0.3013899,0.30173117,1.0239516,0.5194812,0.14778315,-0.16627325,0.4188916,0.165683,-0.066036984,-0.59046453,0.19974822,772.4176,788.1319,784.90845,755.4945,792.96704,-0.09375,0.03717041015625,0.98358154296875,2.2430419921875,0.246734619140625,4.725341796875,1,1.0,1.0,1.0,1.0,40.00
2020-04-08 10:33:48.097,0.5769886,0.1720415,0.10650789,0.58422124,0.6067766,-0.13661584,0.2534761,0.63513577,0.95732254,0.3025423,0.36712387,1.174461,0.28946334,0.15269384,-0.0788903,0.3245032,0.039004143,-0.13333152,-0.59943163,0.1888928,784.90845,793.7729,794.9817,798.60803,838.0952,-0.09375,0.04766845703125,0.97967529296875,2.452392578125,1.383209228515625,3.5888671875,1,1.0,1.0,1.0,1.0,40.00
2020-04-08 10:33:49.125,0.39618897,0.23516156,0.41878977,0.39861175,0.5073535,0.033160325,0.30355313,0.7069207,0.9631379,0.17185064,0.28747898,1.1884878,0.57387835,0.013514175,-0.11186152,0.50159717,-0.025783947,-0.19790624,-0.5041918,0.22711857,780.4762,790.54944,788.1319,788.93774,861.06226,-0.09918212890625,0.0452880859375,0.97100830078125,2.026214599609375,0.299072265625,4.015045166015625,1,1.0,1.0,1.0,1.0,40.00
2020-04-08 10:33:50.134,0.590913,0.32262617,0.3237123,0.47938138,0.68686825,-0.01994428,0.22693111,0.86349064,0.8475701,-0.27395585,0.39668962,1.0947604,0.45138454,0.038639266,-0.09184003,0.48502976,-3.3260524E-4,-0.111263715,-0.47323352,0.16238603,788.5348,794.17584,791.3553,801.4286,732.1245,-0.09234619140625,0.04327392578125,0.98748779296875,1.757049560546875,-0.10467529296875,4.418792724609375,1,1.0,1.0,1.0,1.0,40.00
2020-04-08 10:33:51.135,0.9119181,0.27574477,0.12627864,0.779763,0.5620108,0.0073456434,-0.03873,0.64672977,0.817085,0.1807961,0.4959367,0.8485813,0.2818726,0.06549683,-0.087767996,0.54930305,0.0055347807,-0.15188156,-0.45137817,0.20130822,772.01465,798.60803,792.5641,805.8608,825.2015,-0.085205078125,0.05157470703125,0.98907470703125,1.4056396484375,1.099090576171875,4.605712890625,1,1.0,1.0,1.0,1.0,40.00
2020-04-08 10:33:52.136,0.84337825,0.19155253,0.16376474,0.71919864,0.6456616,0.09138414,0.08371188,0.46943247,0.9821645,0.3142347,0.3572266,0.78171813,0.4083953,0.015140873,-0.07469347,0.50391245,0.01092257,-0.14939786,-0.48192972,0.08741653,762.74725,781.685,784.10254,789.34064,863.0769,-0.0882568359375,0.04608154296875,0.97967529296875,2.086029052734375,0.64300537109375,4.3963623046875,1,1.0,1.0,1.0,1.0,40.00
2020-04-08 10:33:53.138,0.9617818,0.26457578,0.4585849,0.6006168,0.42895398,0.016047599,0.35232887,0.43483388,1.168772,0.41290468,0.30441678,1.0090904,0.5420781,-0.079542264,0.063258514,0.45893836,-0.058426384,-0.1935129,-0.623141,0.06386391,778.46155,792.1612,788.1319,806.26373,740.18317,-0.08563232421875,0.04949951171875,0.98724365234375,2.3028564453125,0.665435791015625,4.78515625,1,1.0,1.0,1.0,1.0,40.00
2020-04-08 10:33:54.139,0.8786283,-0.117776796,0.48756295,0.5773522,0.46448007,0.044498265,0.30725896,0.34648314,0.867915,0.30126777,0.3948038,1.0917135,0.44872782,0.035435207,-0.0051241084,0.50034845,-0.07793281,-0.19082257,-0.57328176,0.1414281,770.40295,794.17584,791.3553,794.17584,880.80585,-0.06597900390625,0.05584716796875,0.9765625,1.831817626953125,-0.396270751953125,3.94775390625,1,1.0,1.0,1.0,1.0,40.00
2020-04-08 10:33:55.141,0.5650928,-0.14749284,0.4496606,0.5456757,0.49677137,0.1867688,0.2819673,0.39986384,1.2137746,0.27558127,0.38217822,1.2036947,0.35367,0.034692433,-0.12771674,0.45895585,-0.05154178,-0.07928062,-0.4875784,0.1397834,791.3553,792.96704,783.69965,808.2784,813.5165,-0.1015625,0.05072021484375,0.96856689453125,1.532745361328125,0.67291259765625,3.835601806640625,1,1.0,1.0,1.0,1.0,40.00
2020-04-08 10:33:56.151,0.81167495,0.13703969,0.38840073,1.023352,0.541555,-0.0152588505,0.19075228,0.8614898,1.2059267,0.13371894,0.23322766,1.2126185,0.37099314,0.026450152,-0.09666495,0.48031798,-0.12285993,-0.15969594,-0.6777541,0.07467803,782.49084,788.1319,789.7436,784.5055,707.5458,-0.177490234375,0.00604248046875,0.97314453125,-3.207550048828125,8.7628173828125,-0.127105712890625,1,1.0,1.0,1.0,1.0,40.00
2020-04-08 10:33:57.160,0.7728098,0.3053512,0.46753573,1.1897824,0.42149988,-0.0043036905,0.4667555,0.77144784,1.0600798,0.2668971,0.43094733,1.2007633,0.32037044,0.1684834,0.083054334,0.34729928,0.0362103,-0.18992142,-0.45676684,0.06536481,764.35895,792.5641,799.41394,765.16486,834.0659,-0.02386474609375,0.0181884765625,1.00054931640625,2.564544677734375,-19.96307373046875,8.9422607421875,1,1.0,1.0,1.0,1.0,40.00
2020-04-08 10:33:58.165,0.81245786,0.27224442,0.46179506,1.128511,0.76127964,-0.048641853,0.4474748,0.6666551,1.2382575,0.47442707,0.4374023,1.0809859,0.38519585,0.26259795,0.16904344,0.44473857,0.124218605,-0.22249795,-0.48162347,-0.012456187,803.44324,794.57874,792.5641,825.2015,845.34796,-0.1181640625,0.0,1.00537109375,2.579498291015625,-0.979461669921875,3.985137939453125,1,1.0,1.0,1.0,1.0,40.00
2020-04-08 10:33:59.188,0.9534551,-0.091635674,-0.08616351,1.0461715,0.69725764,-0.25935444,-0.037482172,0.66840696,1.020338,0.40526763,0.42850882,1.0162587,0.33652854,0.13514845,-0.14131887,0.5041446,0.21649589,-0.28097996,-0.5396323,0.019424165,784.10254,790.9524,791.75824,798.60803,753.0769,-0.1358642578125,0.010986328125,0.978759765625,1.1663818359375,2.250518798828125,4.9945068359375,1,1.0,1.0,1.0,1.0,40.00
2020-04-08 10:34:00.224,0.85690445,0.00356083,-0.23307446,0.76365274,0.5692701,0.04269206,-0.076857135,0.6247768,1.1088858,0.4170771,0.355797,0.9212301,0.5890631,0.08257991,-0.29441842,0.5451747,0.30739957,-0.123677924,-0.5349915,0.1476033,780.87915,795.38464,794.9817,788.93774,742.1978,-0.17999267578125,-3.662109375E-4,0.9677734375,4.41131591796875,-3.207550048828125,4.867401123046875,1,1.0,1.0,1.0,1.0,40.00
2020-04-08 10:34:01.252,0.7799775,0.11683501,0.2763512,0.6240964,0.68599457,0.31089213,0.1342468,0.5999944,1.3650506,0.47937477,0.23628367,1.3493319,0.52726936,-0.03787225,-0.18459761,0.61605465,0.19819368,0.035274345,-0.65209174,0.11390211,827.619,807.0696,796.1905,826.4103,822.7839,-0.181396484375,0.02191162109375,0.9571533203125,1.413116455078125,0.5682373046875,3.955230712890625,1,1.0,1.0,1.0,1.0,40.00
2020-04-08 10:34:02.264,0.85688007,0.028297126,0.34374312,0.7250852,0.7016063,0.28748533,0.17322534,0.40466857,1.3472745,0.23010343,0.37239453,1.2977947,0.5168552,0.046277367,-0.003710636,0.6117966,0.04252726,-0.2257049,-0.5702005,0.0750636,811.0989,802.23444,785.31134,796.99634,786.52014,-0.18743896484375,0.01177978515625,0.95355224609375,1.622467041015625,1.353302001953125,4.583282470703125,1,1.0,1.0,1.0,1.0,40.00
2020-04-08 10:34:03.268,0.84856117,0.24836001,0.4419208,0.66575605,0.62403613,-0.12179238,0.18336734,0.5181789,1.2732816,0.51462984,0.7678778,1.3551157,0.84668434,0.013794185,0.22229852,0.8218416,-0.06710276,-0.337813,-0.5445996,0.046144683,816.337,803.8461,796.5934,815.9341,792.5641,-0.18463134765625,0.02093505859375,0.96417236328125,2.04864501953125,-0.052337646484375,4.403839111328125,1,1.0,1.0,1.0,1.0,40.00
2020-04-08 10:34:04.269,0.7109428,-0.039941307,0.21373926,0.7360024,0.5830942,-0.4214693,0.12439298,0.68759465,1.2876387,0.5652839,0.7874324,1.3791069,0.76534253,-0.026303632,0.12050346,0.66247773,0.020724602,-0.35446537,-0.50915486,0.1781196,834.87177,809.89014,799.81683,839.707,839.304,-0.18072509765625,0.021240234375,0.95599365234375,1.996307373046875,-0.351409912109375,4.50103759765625,1,1.0,1.0,1.0,1.0,40.00
2020-04-08 10:34:05.271,0.7804729,0.16977678,0.24797365,0.896987,0.6903247,-0.14228329,0.08495697,0.78770494,1.3709886,0.28799674,0.5137048,1.1995478,0.70040244,0.10611251,-8.006103E-4,0.5902363,-0.14400224,-0.2255871,-0.5075609,0.04869984,810.293,792.1612,795.38464,838.9011,735.34796,-0.18572998046875,0.013427734375,0.9647216796875,1.54022216796875,1.398162841796875,4.007568359375,1,1.0,1.0,1.0,1.0,40.00
2020-04-08 10:34:06.275,0.48723713,0.21968834,0.3521408,0.4628494,0.42311463,-0.05448367,0.3104593,0.49300057,1.3472968,0.43057743,0.5067661,1.1889358,0.69392264,0.19378656,-0.02956874,0.6576763,-0.06254392,-0.16123785,-0.51827013,0.11876585,815.9341,810.293,805.8608,811.50183,815.5311,-0.185791015625,-0.0062255859375,0.96063232421875,1.614990234375,-0.485992431640625,3.805694580078125,1,1.0,1.0,1.0,1.0,40.00
2020-04-08 10:34:07.281,0.5855438,0.1858657,0.32182392,0.5622328,0.6188617,0.12013247,0.3818445,0.8571381,1.3722991,0.45585167,0.3069089,1.2423743,0.56499803,0.2203817,-0.13902755,0.5601686,0.038800973,-0.23053686,-0.6464784,-0.02049949,801.02563,796.5934,791.75824,832.8571,792.1612,-0.1986083984375,0.0205078125,0.9739990234375,0.500946044921875,3.835601806640625,2.79632568359375,1,1.0,1.0,1.0,1.0,40.00
2020-04-08 10:34:08.303,0.82255507,0.44189444,0.4974032,0.9365941,0.77626806,0.21297556,0.23805426,0.98139036,1.1932331,0.1689579,0.2264626,1.2349212,0.5451143,0.18563828,-0.25886798,0.46667278,-0.028431505,-0.25097,-0.45216233,-0.0024629505,821.978,810.696,803.0403,830.0366,857.03296,-0.2786865234375,-0.0462646484375,0.94183349609375,0.22430419921875,2.953338623046875,11.910552978515625,1,1.0,1.0,1.0,1.0,40.00
2020-04-08 10:34:09.308,0.72309977,0.20776963,0.8174226,0.8839029,0.77299875,0.1270494,0.29179806,0.8443582,1.158464,0.25072965,0.110300526,1.1490028,0.53509134,0.13632269,-0.17619643,0.49587882,-0.034874234,-0.2111213,-0.49479687,-0.005784862,818.3516,801.4286,793.7729,833.663,755.09155,-0.31121826171875,0.0135498046875,0.920166015625,2.25799560546875,-0.40374755859375,2.743988037109375,1,1.0,1.0,1.0,1.0,40.00
2020-04-08 10:34:10.310,0.6250415,0.03002301,0.6717483,0.67964107,0.5404462,0.267937,0.178448,0.6726746,1.1200688,0.38263848,0.23597671,1.0000396,0.40765145,0.027160855,-0.12106094,0.49375877,0.14709292,-0.22640654,-0.57444155,0.052189395,815.12823,799.011,794.57874,806.6667,711.5751,-0.283935546875,0.00909423828125,0.93072509765625,2.4822998046875,0.478515625,4.478607177734375,1,1.0,1.0,1.0,1.0,40.00
2020-04-08 10:34:11.313,0.8816222,0.2715807,0.47987562,0.64316654,0.7450557,0.17242917,0.063906446,0.6349016,1.2319193,0.600212,0.2717747,1.0881034,0.54571366,0.05787975,-0.1381797,0.4456302,0.07481294,-0.25511062,-0.5980229,0.10449071,819.9634,796.1905,800.2198,829.2308,853.00366,-0.2542724609375,0.01116943359375,0.94195556640625,2.190704345703125,-0.52337646484375,4.478607177734375,1,1.0,1.0,1.0,1.0,40.00
2020-04-08 10:34:12.341,0.655082,0.37443838,0.3284307,0.62010556,0.8525637,-0.09394479,0.08354373,0.8784397,1.3156738,0.5395139,0.63705415,1.5506518,0.45402598,0.02946264,-0.017162018,0.5894405,0.1198698,-0.13593823,-0.5654363,0.1648793,804.2491,802.6374,793.36993,796.99634,702.3077,-0.203857421875,0.010986328125,0.95794677734375,2.235565185546875,-1.173858642578125,4.344024658203125,1,1.0,1.0,1.0,1.0,40.00
2020-04-08 10:34:13.349,0.7301387,0.5390521,0.33206794,0.6988905,0.91728425,0.21936193,0.17973262,0.8049599,1.4007227,0.257617,0.6351152,1.5925499,0.5059539,-0.14295954,0.0138062425,0.59313303,0.059910983,-0.06766512,-0.34236538,0.28389508,804.65204,801.8315,792.5641,788.1319,757.1062,-0.20355224609375,0.0157470703125,0.9495849609375,2.160797119140625,1.472930908203125,4.68048095703125,1,1.0,1.0,1.0,1.0,40.00
2020-04-08 10:34:14.349,0.57972324,0.4351365,0.25744718,0.5108325,0.27412996,0.17811953,-0.29428476,0.20567602,1.164335,0.15091959,0.22169663,1.2394572,0.51410985,-0.11932639,0.03579193,0.69868153,0.050480615,-0.3214013,-0.42098057,0.09834288,802.6374,806.6667,794.17584,800.2198,903.36993,-0.20269775390625,0.0106201171875,0.9566650390625,1.80938720703125,1.136474609375,4.8150634765625,1,1.0,1.0,1.0,1.0,40.00
2020-04-08 10:34:15.355,0.4240274,-0.06457707,0.32377082,0.66671497,0.2458662,0.090946995,0.20668358,0.6224297,0.69104105,0.21067762,0.40408987,1.2905165,0.39515403,0.049273588,0.013649761,0.76866454,0.10949248,-0.2541564,-0.5417138,-0.0041124816,820.3663,805.05493,789.7436,815.12823,824.7985,-0.2042236328125,0.013427734375,0.95880126953125,2.5421142578125,-0.4486083984375,4.0673828125,1,1.0,1.0,1.0,1.0,40.00
2020-04-08 10:34:16.361,0.50113815,0.4660294,0.51437545,0.6640365,0.463434,0.096177235,0.3512389,0.6659217,0.6934437,0.30340627,0.4166088,1.2158326,0.28483135,0.054465108,-0.015484831,0.5306192,-0.038335454,-0.21105826,-0.52946615,0.037102453,796.1905,799.81683,803.0403,791.75824,827.619,-0.208984375,0.013916015625,0.95654296875,1.86920166015625,1.248626708984375,4.882354736328125,1,1.0,1.0,1.0,1.0,40.00
2020-04-08 10:34:17.369,0.59741265,0.4703821,0.1824492,0.70037186,0.69596756,-0.05115753,0.20558056,0.8184884,1.0515219,0.2973533,0.37805238,1.005254,0.35071066,-0.003316435,-0.0663511,0.4274252,-0.042450182,-0.19762978,-0.57120144,0.03367142,801.02563,788.5348,785.7143,789.34064,692.23444,-0.2066650390625,0.01324462890625,0.946044921875,1.592559814453125,0.7476806640625,4.08233642578125,1,1.0,1.0,1.0,1.0,40.00
2020-04-08 10:34:18.378,0.7986407,0.21412954,-0.014988832,0.8673371,0.6099249,0.26381525,0.018184805,0.7755364,1.2012684,0.30190015,0.1682113,1.107676,0.45140228,0.014538549,-0.108876236,0.43907955,-0.0014541452,-0.20796062,-0.42048275,-0.09620517,796.99634,797.3993,794.57874,802.23444,875.16486,-0.2037353515625,0.02508544921875,0.95599365234375,1.861724853515625,1.7645263671875,3.955230712890625,1,1.0,1.0,1.0,1.0,40.00
2020-04-08 10:34:19.390,0.8532012,-0.069238536,0.32534122,0.9760543,0.49007806,-0.015781581,0.21980233,0.5519215,1.1318096,0.17513293,0.36809975,1.0921854,0.47156152,-0.010091685,-0.07522565,0.49282372,-0.09170274,-0.28817856,-0.549143,-0.1445805,779.67035,786.9231,788.1319,794.57874,793.7729,-0.18084716796875,0.00921630859375,0.96356201171875,2.67669677734375,0.246734619140625,4.8748779296875,1,1.0,1.0,1.0,1.0,40.00
2020-04-08 10:34:20.401,1.0458584,-0.22169669,0.25656763,0.9664899,0.69919527,-0.40757516,0.17295733,0.67108434,0.954895,0.15860613,0.325858,1.1690584,0.45050758,-0.0076462,-0.05843875,0.4999891,0.0060136616,-0.34356135,-0.6552525,-0.275027,785.7143,799.011,787.326,782.8938,891.685,-0.183349609375,0.01025390625,0.9696044921875,2.429962158203125,0.059814453125,4.882354736328125,1,1.0,1.0,1.0,1.0,40.00
2020-04-08 10:34:21.411,0.7881055,0.092259936,0.15056017,0.77238166,0.44794753,-0.228745,-0.015309949,0.50263774,1.0275888,0.08831305,-0.0017328386,1.1663837,0.38521135,0.010934591,-0.24698761,0.59705913,-0.028072214,-0.3430603,-0.6031797,-0.072973594,774.83514,784.5055,786.1172,776.04395,771.2088,-0.17291259765625,0.0142822265625,0.9542236328125,2.51220703125,0.5084228515625,4.007568359375,1,1.0,1.0,1.0,1.0,40.00
2020-04-08 10:34:22.434,0.35927364,0.19782144,0.37269646,0.37074453,0.2348575,-0.090603545,0.09233205,0.15936719,1.1413196,0.31636843,0.065932296,1.3294992,0.4557236,0.03254306,-0.21585837,0.46616048,0.068103485,-0.27366966,-0.42834622,-0.022649035,796.99634,796.1905,795.38464,799.81683,762.3443,-0.1724853515625,0.0152587890625,0.96966552734375,2.250518798828125,0.216827392578125,3.828125,1,1.0,1.0,1.0,1.0,40.00
2020-04-08 10:34:23.447,0.7977154,-0.063683994,-0.06393673,0.6219755,0.4916935,0.12541302,0.07903379,0.46838894,1.2725651,0.34650669,0.42423788,1.3300977,0.40406978,0.13780284,-0.10945154,0.40740073,0.06579854,-0.32377362,-0.5322988,0.14648232,771.6117,786.52014,789.34064,794.57874,731.31866,-0.16290283203125,0.02197265625,0.96612548828125,1.55517578125,1.03179931640625,3.9776611328125,1,1.0,1.0,1.0,1.0,40.00
2020-04-08 10:34:24.463,0.7428596,0.20628901,-0.074662074,0.71616757,0.6232525,0.3326977,-0.119378,0.5131583,1.3722302,0.20994715,0.26559576,1.376685,0.51395386,0.22595868,-0.08973147,0.55890334,0.08006039,-0.3178288,-0.64647543,0.18487222,772.8205,796.5934,796.1905,801.02563,907.8022,-0.16986083984375,0.029296875,0.95916748046875,1.936492919921875,1.667327880859375,4.807586669921875,1,1.0,1.0,1.0,1.0,40.00
2020-04-08 10:34:25.466,0.7707253,0.31190476,0.13423996,0.68901634,0.731792,0.26115754,-0.043298166,0.57454515,1.1463268,0.05296718,-0.0039937817,1.189839,0.30802384,0.031433884,-0.12934995,0.49091128,0.025450021,-0.35915753,-0.57788926,0.06045245,787.72894,794.17584,799.81683,810.293,806.26373,-0.16204833984375,0.02166748046875,0.9708251953125,2.295379638671875,0.740203857421875,4.194488525390625,1,1.0,1.0,1.0,1.0,40.00
2020-04-08 10:34:26.472,0.7908188,-0.09782352,0.48836762,0.59755754,0.72541755,-0.0756283,-0.06874393,0.5692847,1.2243705,0.20737481,-0.030325675,1.2498401,0.52542907,-0.06758843,-0.008430673,0.60526115,-0.050353177,-0.3167021,-0.64720386,0.038362253,776.8498,797.3993,794.57874,794.17584,841.31866,-0.15289306640625,0.0225830078125,0.96551513671875,1.786956787109375,0.142059326171875,4.29168701171875,1,1.0,1.0,1.0,1.0,40.00
2020-04-08 10:34:27.484,0.62753725,-0.01851627,0.5563931,0.662562,0.44341806,-0.038938835,0.07065968,0.45746028,0.96553016,0.24968898,0.046615716,1.2140787,0.556415,0.048460253,-0.021648461,0.57780826,0.012939594,-0.23550144,-0.52488697,0.16118805,779.67035,790.9524,788.1319,801.4286,882.8205,-0.15399169921875,0.013916015625,0.968017578125,2.205657958984375,-0.2691650390625,3.768310546875,1,1.0,1.0,1.0,1.0,40.00
2020-04-08 10:34:28.493,0.70615417,0.19176218,0.4986922,0.8787394,0.40561,0.1364315,0.46343872,0.52900434,0.9668508,0.24433783,1.0779436,1.1635616,0.4469161,-0.18120183,0.24437486,0.30742016,-0.10896834,-0.22947244,-0.648867,-0.016765146,789.7436,801.4286,784.90845,807.8755,674.5055,-0.12310791015625,0.02392578125,0.9747314453125,1.682281494140625,0.381317138671875,4.373931884765625,1,1.0,1.0,1.0,1.0,40.00
2020-04-08 10:34:29.503,0.6104178,0.27792966,0.9410524,0.7891833,0.56216264,-0.038491488,0.90231,0.55073404,1.0684359,0.081887275,1.1638463,1.3884022,0.5191638,-0.06969196,0.53848636,0.3388795,-0.15354085,-0.24732809,-0.6290303,0.016874138,775.2381,787.326,788.5348,798.20514,756.30035,-0.1373291015625,0.029541015625,0.96685791015625,1.816864013671875,-0.321502685546875,6.23565673828125,1,1.0,1.0,1.0,1.0,40.00
2020-04-08 10:34:30.508,0.5495401,0.31239212,0.6480877,0.8738833,0.4824707,-0.040115464,0.13573283,0.4966416,1.1438617,0.29674238,0.42123798,1.3541809,0.529778,-0.11899651,0.02075514,0.5000691,0.0063163587,-0.2119837,-0.5829659,0.061175525,771.2088,799.41394,794.9817,788.5348,775.64105,-0.13018798828125,0.0362548828125,0.9818115234375,1.472930908203125,-1.368255615234375,3.9178466796875,1,1.0,1.0,1.0,1.0,40.00
2020-04-08 10:34:31.529,0.6988925,0.385147,0.2463457,0.7219821,0.44342834,0.1929697,-0.14510746,0.51630175,1.1904175,0.5224125,0.40938318,0.85713834,0.51378965,0.061110854,-0.010092564,0.6189657,0.079668574,-0.16238838,-0.49831644,-0.02374536,777.6557,790.9524,794.57874,797.3993,866.30035,-0.12811279296875,0.03765869140625,0.9666748046875,1.4654541015625,0.994415283203125,4.987030029296875,1,1.0,1.0,1.0,1.0,40.00
2020-04-08 10:34:32.541,0.6859822,0.33505777,0.27635866,0.44858298,0.6069888,0.12662952,0.34630215,0.48525056,1.2705841,0.4808283,0.5592553,1.0801907,0.5788433,-0.04424111,0.011769901,0.4935415,0.1268688,-0.3321572,-0.44751105,0.1583568,774.83514,792.1612,790.54944,798.20514,792.1612,-0.11541748046875,0.0362548828125,0.98114013671875,1.65985107421875,-1.248626708984375,4.732818603515625,1,1.0,1.0,1.0,1.0,40.00
2020-04-08 10:34:33.542,0.5773024,-0.05652524,0.38952988,0.89923674,0.39574823,-0.023367727,0.3867275,0.32254818,1.1948186,0.08204303,0.45859715,1.1680509,0.41012338,-0.07773593,-0.074358895,0.50663435,-0.11082141,-0.31198463,-0.60904956,0.23768798,800.6227,797.3993,796.99634,818.3516,788.5348,-0.11279296875,0.02520751953125,0.97509765625,2.1832275390625,0.321502685546875,4.433746337890625,1,1.0,1.0,1.0,1.0,40.00
2020-04-08 10:34:34.566,0.76351386,-0.00906865,-0.11521549,0.9459174,0.3468268,0.08753224,-0.047349475,0.41931638,1.0331104,0.43389374,0.3709934,1.0457426,0.3132679,-0.044520944,-0.07773218,0.42481884,-0.10356166,-0.17423764,-0.49933025,0.23343943,773.22345,794.57874,797.3993,786.52014,836.4835,-0.11834716796875,0.0250244140625,0.96734619140625,1.973876953125,-1.07666015625,3.342132568359375,1,1.0,1.0,1.0,1.0,40.00
2020-04-08 10:34:35.584,0.5823653,-0.061552588,0.050816398,0.646025,0.48337677,-0.080411114,0.013015733,0.5877762,0.99891067,0.36028,0.21531036,1.0527,0.4010563,0.056965496,-0.13457125,0.37756354,-0.22400935,-0.28907636,-0.4486674,0.068298884,801.02563,807.8755,801.02563,817.5458,795.78754,-0.10736083984375,0.01275634765625,0.97625732421875,1.48040771484375,1.293487548828125,4.568328857421875,1,1.0,1.0,1.0,1.0,40.00
2020-04-08 10:34:36.590,0.8627409,-0.014972375,0.2686066,0.7492662,0.5397725,-0.021897236,0.080712736,0.7723321,0.8447951,-0.14765362,0.083361894,1.0130737,0.4757796,0.13101414,-0.077396564,0.57104206,-0.086271,-0.4095875,-0.4254179,-0.20946506,803.0403,799.41394,797.3993,808.2784,877.5824,-0.0955810546875,0.009033203125,0.98358154296875,2.265472412109375,0.411224365234375,4.44122314453125,1,1.0,1.0,1.0,1.0,40.00
2020-04-08 10:34:37.597,0.9787985,-0.07482015,0.20113282,0.97034985,0.9828676,0.10268119,0.07507061,0.80151904,1.2081583,0.3802082,0.27397525,1.3143406,0.36414808,-0.027220171,-0.081029065,0.3681971,-0.0018061621,-0.17653918,-0.3941566,0.029535493,815.5311,811.50183,805.8608,813.1135,821.1722,-0.107177734375,0.03045654296875,0.97186279296875,0.67291259765625,1.6448974609375,4.927215576171875,1,1.0,1.0,1.0,1.0,40.00
2020-04-08 10:34:38.624,0.6706536,0.08985317,0.14025001,0.78896004,0.86575115,0.3200332,0.1871341,0.6264022,1.2209657,0.41620436,0.5157298,1.3312799,0.4901797,0.18045445,-0.108364925,0.51359874,-0.043062773,-0.20618612,-0.5188604,0.081214145,808.68134,799.011,804.65204,817.1429,840.9158,-0.10052490234375,0.0225830078125,0.9837646484375,2.94586181640625,1.413116455078125,4.912261962890625,1,1.0,1.0,1.0,1.0,40.00
2020-04-08 10:34:39.637,0.82346725,0.4124959,0.4090969,0.5659323,0.7126469,0.27418032,0.07923395,0.54248214,0.92318153,0.31499347,0.4655713,1.306514,0.6111032,0.11932082,-0.028169792,0.53110874,0.019844921,-0.29707712,-0.57196903,0.19849646,815.12823,803.8461,794.17584,819.5604,787.326,-0.10955810546875,0.011474609375,0.97589111328125,1.9439697265625,-0.007476806640625,4.717864990234375,1,1.0,1.0,1.0,1.0,40.00
2020-04-08 10:34:40.639,0.6618779,0.117461644,0.93468386,0.61773026,0.5065168,-0.040049832,0.41427517,0.845958,0.8615093,0.37673447,0.6697387,1.0680377,0.51745296,0.111096576,0.21896908,0.49985105,0.040520914,-0.20507522,-0.36876392,0.029398417,815.9341,807.8755,846.55676,807.8755,846.1539,-0.0955810546875,0.0052490234375,0.98577880859375,1.069183349609375,0.478515625,5.884246826171875,1,1.0,1.0,1.0,1.0,40.00
2020-04-08 10:34:41.099,,,,,,,,,,,,,,,,,,,,,,,,,,,,,,,,,,,,,,/muse/elements/blink
2020-04-08 10:34:41.646,0.7389585,0.03946749,1.3609263,0.6312542,0.8100534,-0.3607903,0.71196663,1.0491229,0.8140178,0.23890528,0.6681962,0.7970819,0.3666647,0.08501959,0.49292648,0.33240744,-0.13614781,-0.1169211,-0.21463655,0.014521275,832.4542,805.8608,798.20514,807.47253,740.989,-0.1019287109375,0.04254150390625,0.9710693359375,1.009368896484375,4.418792724609375,2.699127197265625,1,1.0,1.0,1.0,1.0,40.00
2020-04-08 10:34:42.682,0.8587581,0.7432939,0.08806277,0.6055443,0.5988069,-0.018072404,-0.114599474,0.7229357,1.1307448,0.3382016,-0.11954943,1.0379965,0.54191273,0.14586924,-0.193725,0.49774098,-0.056469485,-0.12866814,-0.7569678,-0.08228154,824.3956,807.47253,795.38464,830.0366,766.77655,-0.09954833984375,0.0361328125,0.98486328125,1.06170654296875,1.15142822265625,4.80010986328125,1,1.0,1.0,1.0,1.0,40.00
2020-04-08 10:34:43.695,0.7034058,0.6138212,0.051842473,0.74341524,0.32461032,-0.022497289,0.10000059,0.5162371,1.1307448,0.36478418,0.41775078,1.0537074,0.47136536,0.15700868,-0.09586498,0.45033923,-0.022870779,-0.2935964,-0.6957757,-0.074029505,803.8461,804.65204,791.75824,791.75824,826.0073,-0.1044921875,0.037841796875,0.9781494140625,3.22998046875,-0.276641845703125,4.62066650390625,1,1.0,1.0,1.0,1.0,40.00
2020-04-08 10:34:44.707,0.5117893,0.463073,0.29764408,0.71585566,0.40361947,0.0244057,0.1239638,-0.0032984512,1.3813746,0.46675265,0.48493174,1.1708947,0.59529704,0.18006076,0.029687017,0.49683458,-0.099398196,-0.29400542,-0.5766058,-0.01993293,819.15753,804.2491,788.5348,824.3956,776.04395,-0.0938720703125,0.03759765625,0.97686767578125,1.772003173828125,0.142059326171875,3.925323486328125,1,1.0,1.0,1.0,1.0,40.00
2020-04-08 10:34:45.710,0.8109063,0.7681061,0.29038125,0.74272,0.4436707,0.0653959,0.111706905,0.13183278,1.3813746,0.4467011,0.21720454,1.1652092,0.5464095,0.19705327,0.02146973,0.42009392,-0.10202839,-0.19621237,-0.5723886,-0.04296242,809.89014,799.41394,797.3993,799.81683,645.4945,-0.09027099609375,0.03228759765625,0.9854736328125,1.83929443359375,1.6448974609375,3.925323486328125,1,1.0,1.0,1.0,1.0,40.00
2020-04-08 10:34:46.721,0.5338003,0.04500526,0.20967928,0.7692829,0.24359699,-0.05023729,-0.09352853,0.18239045,1.0039303,0.013692971,0.3005896,0.8821745,0.25944993,0.0154044395,-0.009636463,0.5979762,-0.022192702,-0.16939558,-0.7204787,-0.03840519,785.7143,784.90845,790.54944,795.38464,756.7033,-0.0938720703125,0.041748046875,0.97991943359375,2.145843505859375,0.067291259765625,3.3197021484375,1,1.0,1.0,1.0,1.0,40.00
2020-04-08 10:34:47.729,0.5305056,0.04950122,0.26121026,0.7519266,0.3781936,-0.11244339,0.0690879,0.3726258,0.9907679,0.29661047,0.2812444,0.8839705,0.36059967,0.14332403,-0.06936926,0.6331081,0.040935893,-0.12165989,-0.57608813,0.10331086,794.57874,803.8461,799.81683,805.4579,761.13556,-0.10345458984375,0.04949951171875,0.97320556640625,1.293487548828125,1.667327880859375,3.70849609375,1,1.0,1.0,1.0,1.0,40.00
2020-04-08 10:34:48.743,0.3411041,0.3398396,0.37690914,0.3675702,0.33476132,0.08384208,0.18457164,0.37697807,0.8743469,0.17034547,0.33541727,0.9320903,0.35155046,0.114668965,-0.12720889,0.38513476,-0.11932603,-0.26695257,-0.53209186,-0.06596998,782.8938,790.9524,802.23444,779.67035,705.12823,-0.1114501953125,0.042724609375,0.97772216796875,1.831817626953125,0.186920166015625,4.127197265625,1,1.0,1.0,1.0,1.0,40.00
2020-04-08 10:34:49.748,0.6625176,0.5311184,0.5355332,0.59113884,0.24323437,0.08034008,-0.07021038,0.28708857,0.9318174,0.24286494,0.26726452,1.093439,0.40020722,0.15587814,-0.23306859,0.44133168,-0.13254924,-0.2146785,-0.56093425,-0.1263468,780.4762,798.20514,811.50183,790.9524,721.6484,-0.09930419921875,0.0435791015625,0.96929931640625,2.564544677734375,-1.547698974609375,4.867401123046875,1,1.0,1.0,1.0,1.0,40.00
2020-04-08 10:34:50.751,0.6553219,-0.029318826,0.36345345,0.52228296,0.11383699,-0.0798989,-0.017313845,0.19430234,1.0657073,0.35816365,0.25517693,1.105675,0.34590098,0.013666426,-0.20993817,0.56086016,-0.05001744,-0.28569752,-0.4961689,-0.114489265,812.71063,811.0989,798.60803,789.34064,795.38464,-0.08380126953125,0.04180908203125,0.97540283203125,1.637420654296875,1.293487548828125,4.14215087890625,1,1.0,1.0,1.0,1.0,40.00
2020-04-08 10:34:51.760,0.83869123,0.17262821,0.262185,0.64891404,0.5323413,0.07332341,0.013675107,0.29204082,1.1686907,0.34711093,0.41919038,1.1839042,0.5973118,0.01020653,-0.09982844,0.61215687,-0.2299227,-0.20175058,-0.4246401,0.0020520873,796.1905,792.96704,794.57874,800.2198,800.2198,-0.11676025390625,0.03057861328125,0.986328125,1.4654541015625,3.30474853515625,4.3963623046875,1,1.0,1.0,1.0,1.0,40.00
2020-04-08 10:34:52.772,0.739923,0.09466239,0.14650868,0.7369603,0.522095,-0.08177585,-0.08531931,0.673737,1.292609,0.29910594,0.32725435,1.173983,0.4880459,0.11814986,-0.057142988,0.65140176,-0.19488356,-0.21956816,-0.65977013,-0.066954605,784.10254,790.54944,796.5934,786.1172,853.8095,-0.1519775390625,0.029052734375,0.96905517578125,1.128997802734375,0.34393310546875,6.228179931640625,1,1.0,1.0,1.0,1.0,40.00
2020-04-08 10:34:53.786,0.5561037,0.13025868,0.1108221,0.7176252,0.42230552,0.040829994,-0.078456104,0.5765067,1.1474158,0.30765003,0.2909399,1.0655617,0.29970512,0.07222481,-0.1092023,0.38782436,-0.03374256,-0.14942046,-0.74023587,-0.045605477,764.7619,790.14655,797.3993,788.93774,807.47253,-0.13922119140625,0.037353515625,0.98089599609375,2.40753173828125,0.97198486328125,4.643096923828125,1,1.0,1.0,1.0,1.0,40.00
2020-04-08 10:34:54.790,0.57614225,0.12820242,0.39857665,0.6952509,0.47283185,0.012172728,0.124518774,0.42513943,1.2742018,0.37112212,0.28775507,1.0735865,0.61303234,0.056273136,-0.10677067,0.44378722,-0.045197174,-0.18376884,-0.4750024,0.07950254,779.67035,798.20514,791.75824,769.19415,752.27106,-0.14495849609375,0.0262451171875,0.970947265625,1.532745361328125,1.577606201171875,3.222503662109375,1,1.0,1.0,1.0,1.0,40.00
2020-04-08 10:34:55.814,0.7766252,0.15190686,0.5297546,0.44214123,0.7615661,-0.075729035,-0.041383408,0.4491362,1.3617271,0.34136862,0.18940906,1.1989744,0.83089405,0.06403043,-0.22224993,0.7237767,-0.0439129,-0.20447034,-0.37044218,0.16784342,787.72894,792.96704,793.36993,810.696,779.2674,-0.1444091796875,0.02197265625,0.96710205078125,2.25799560546875,0.231781005859375,4.11224365234375,1,1.0,1.0,1.0,1.0,40.00
2020-04-08 10:34:56.818,0.55404025,0.3507635,0.19469188,0.8251859,0.3936197,-0.105812095,-0.0646262,0.6143985,1.101102,0.16188449,0.3709857,1.4608437,0.62007827,0.11174877,-0.15853047,0.572753,-0.024157066,-0.17899598,-0.57020694,0.06916158,767.1795,793.7729,791.3553,790.9524,830.0366,-0.13690185546875,0.02874755859375,0.968017578125,1.5850830078125,0.59814453125,3.6187744140625,1,1.0,1.0,1.0,1.0,40.00
2020-04-08 10:34:57.827,0.7026576,0.35481653,0.21175629,0.9272535,0.4118114,-0.02126777,-0.081139624,0.6063703,1.0601598,0.14296725,0.4867047,1.4617183,0.62972313,0.08438036,0.012055295,0.6687754,-0.21760784,-0.22812335,-0.41871834,0.02186706,759.12085,784.5055,784.10254,794.17584,766.77655,-0.1263427734375,0.0345458984375,0.97003173828125,0.7177734375,-0.515899658203125,4.605712890625,1,1.0,1.0,1.0,1.0,40.00
2020-04-08 10:34:58.828,0.89449954,0.5579641,0.5850361,0.8788868,0.49960497,0.014355833,-0.012228005,0.5591745,0.9609276,0.21848983,0.42570084,1.063894,0.60995287,0.14445227,-0.08174643,0.70889807,-0.07875711,-0.21271281,-0.724226,0.014070321,792.1612,792.96704,789.7436,805.8608,851.39197,-0.1265869140625,0.0350341796875,0.96636962890625,1.734619140625,0.381317138671875,3.69354248046875,1,1.0,1.0,1.0,1.0,40.00
2020-04-08 10:34:59.852,0.86001384,0.44268844,0.5038998,0.7941468,0.7810849,-0.018385118,-0.10378139,0.61278486,1.0548464,0.28468964,0.105657615,1.0059996,0.50892204,0.09316296,-0.11319061,0.5345375,-0.095287025,-0.21524282,-0.50121814,0.080662586,784.5055,794.17584,801.8315,784.5055,875.16486,-0.1273193359375,0.02166748046875,0.969970703125,2.459869384765625,0.381317138671875,4.927215576171875,1,1.0,1.0,1.0,1.0,40.00
2020-04-08 10:35:00.865,0.7646417,0.31867597,0.3210354,0.944064,0.42949915,-0.03258671,-0.009979678,0.5650696,0.9063607,0.22299439,0.12317633,0.9504116,0.37377807,-0.002467698,0.0129820295,0.4863111,-0.15492792,-0.41909465,-0.564066,0.10120726,790.9524,792.96704,783.2967,799.011,710.3663,-0.11181640625,0.0277099609375,0.98602294921875,2.190704345703125,0.04486083984375,4.239349365234375,1,1.0,1.0,1.0,1.0,40.00
2020-04-08 10:35:01.874,0.78164023,0.25933498,0.5620175,1.0378622,0.5948288,0.06451933,0.0037526067,0.63665324,0.9874766,0.23945992,0.095281914,1.1548804,0.34448463,0.073320955,-0.08438731,0.42432582,-0.075547226,-0.40144458,-0.53808486,0.04178661,794.9817,801.4286,793.7729,813.1135,849.3773,-0.10687255859375,0.046142578125,0.97332763671875,1.5252685546875,0.829925537109375,4.598236083984375,1,1.0,1.0,1.0,1.0,40.00
2020-04-08 10:35:02.883,0.8248904,0.12369301,0.18638228,0.9722328,0.4676698,0.0039211893,-0.21604834,0.5368394,1.2143725,0.34882447,0.3268728,1.1603427,0.5114167,0.024945974,-0.13070612,0.676428,-0.033451647,-0.26998818,-0.5049875,0.2120586,790.9524,794.17584,802.23444,804.2491,687.3993,-0.11004638671875,0.02325439453125,0.97772216796875,1.8841552734375,0.94207763671875,4.284210205078125,1,1.0,1.0,1.0,1.0,40.00
2020-04-08 10:35:03.885,0.6373533,-0.019565316,0.44119304,0.78900117,0.21525939,0.11931149,0.13815904,0.5599935,1.1219121,0.3903714,0.35187098,1.2286434,0.37563926,0.010351047,0.0028470207,0.60528827,-0.3078799,-0.3127017,-0.625224,0.07535512,801.8315,805.05493,794.17584,801.8315,785.31134,-0.088134765625,0.0350341796875,0.98028564453125,1.203765869140625,-0.43365478515625,3.45428466796875,1,1.0,1.0,1.0,1.0,40.00
2020-04-08 10:35:04.886,0.3835175,-0.30286998,0.5701126,0.63980985,0.6242452,0.036810942,0.25531292,0.7323352,0.9316696,0.32930666,0.3475201,1.0878242,0.38419178,0.09924735,-0.055755142,0.51996094,-0.17321086,-0.326154,-0.5246419,0.05309811,813.5165,797.8022,795.78754,833.663,836.08057,-0.10247802734375,0.030029296875,0.98284912109375,2.01873779296875,0.500946044921875,4.029998779296875,1,1.0,1.0,1.0,1.0,40.00
2020-04-08 10:35:05.894,0.36351278,-0.35860565,0.10426473,0.45204532,0.5858287,-0.12221943,-0.0316167,0.7352942,0.93286014,0.5479288,0.44463784,1.2622874,0.5093545,0.07505925,0.010126409,0.54321396,-0.08356092,-0.2602237,-0.5872919,-0.062731855,801.8315,797.3993,788.93774,795.38464,899.34064,-0.09381103515625,0.0294189453125,0.97711181640625,1.248626708984375,1.502838134765625,5.719757080078125,1,1.0,1.0,1.0,1.0,40.00
2020-04-08 10:35:06.904,0.7747915,0.080023624,0.19185318,0.5645019,0.6877165,-0.07031184,-0.108495176,0.8465143,0.82226443,0.53505,0.50051326,1.3285694,0.47492188,0.1302937,0.05849121,0.49890077,0.0072542015,-0.44123042,-0.5412395,-0.12652293,801.4286,801.02563,805.05493,814.7253,893.69965,-0.1688232421875,0.01953125,0.95257568359375,1.607513427734375,4.000091552734375,3.03558349609375,1,1.0,1.0,1.0,1.0,40.00
2020-04-08 10:35:07.910,0.9193245,0.18708757,0.086764224,0.697099,0.59527147,-0.049477547,0.026165508,0.35749626,0.93277603,0.2841012,0.3847084,1.083941,0.40171078,0.04028606,0.07778289,0.57848126,-4.801671E-4,-0.33261535,-0.5583184,0.06034614,806.6667,805.8608,798.20514,824.7985,892.0879,-0.17352294921875,0.02276611328125,0.96905517578125,2.16827392578125,0.5084228515625,4.269256591796875,1,1.0,1.0,1.0,1.0,40.00
2020-04-08 10:35:08.917,0.7081429,-0.08935665,0.23054528,0.45870927,0.41110674,-0.040661234,0.1559687,0.2544521,1.197475,0.4553962,0.39387673,0.9741189,0.5051486,0.054642227,0.0034504528,0.57073534,-0.04817212,-0.20743585,-0.535658,-0.08549725,814.7253,801.02563,799.011,821.978,747.8388,-0.1661376953125,0.01324462890625,0.96759033203125,2.056121826171875,0.994415283203125,3.626251220703125,1,1.0,1.0,1.0,1.0,40.00
2020-04-08 10:35:09.926,0.7552478,-0.3022884,-0.15075038,0.57962584,0.5877025,-0.018494941,0.08077608,0.43236816,1.2262751,0.35675737,0.39734992,0.8478106,0.6173732,0.005788096,-0.034941357,0.6945158,-0.15942211,-0.2505312,-0.44107538,-0.12191513,815.9341,810.293,800.6227,823.9927,900.9524,-0.17327880859375,0.01751708984375,0.9617919921875,2.34771728515625,-0.426177978515625,4.284210205078125,1,1.0,1.0,1.0,1.0,40.00
2020-04-08 10:35:10.935,0.45920876,0.100461364,0.042040855,0.17237909,0.32986957,-0.19894028,-0.2047468,0.2636426,1.221395,0.071427,0.16502489,0.9863249,0.5952447,0.00596458,-0.053008568,0.47946638,-0.2352036,-0.29262108,-0.59691715,0.12877,817.1429,803.8461,793.7729,803.8461,833.663,-0.157958984375,0.019287109375,0.9686279296875,1.562652587890625,0.650482177734375,3.75335693359375,1,1.0,1.0,1.0,1.0,40.00
2020-04-08 10:35:11.947,0.52508175,0.24648063,0.3378964,0.30428654,0.43372017,-0.07480862,-0.35009181,0.37938067,1.1900929,0.059552684,0.053465538,0.9342983,0.34756923,-0.07471822,-0.05326893,0.3040592,-0.20104945,-0.30282474,-0.50595367,0.10020386,811.50183,797.3993,796.1905,812.71063,830.0366,-0.1483154296875,0.01531982421875,0.976806640625,2.25799560546875,-0.710296630859375,3.850555419921875,1,1.0,1.0,1.0,1.0,40.00
2020-04-08 10:35:12.948,0.56904906,0.27233332,0.30322313,0.5692722,0.48908353,-0.10654667,-0.118211016,0.67383075,1.0306962,0.07231367,0.335457,1.1931136,0.37925816,-0.07922798,-0.21204783,0.42678052,-0.119513005,-0.24891888,-0.48940402,-0.016983349,813.5165,810.293,801.02563,814.3223,914.2491,-0.14398193359375,0.00830078125,0.97833251953125,0.874786376953125,0.216827392578125,3.00567626953125,1,1.0,1.0,1.0,1.0,40.00
2020-04-08 10:35:13.966,0.6681894,0.12187191,0.24112394,0.50801194,0.60586715,0.107314974,0.054571025,0.6936217,1.1527444,0.21522251,0.2668248,1.2751819,0.6160424,-0.06887122,-0.14037684,0.6014172,-0.115913175,-0.26234898,-0.55743843,0.04498526,822.7839,807.47253,800.2198,824.7985,866.7033,-0.14288330078125,0.01513671875,0.966796875,0.95703125,1.099090576171875,4.329071044921875,1,1.0,1.0,1.0,1.0,40.00
2020-04-08 10:35:14.966,0.6830966,0.21508962,0.03234018,0.74396485,0.7842966,0.2156586,0.1768844,0.75404775,1.1810954,0.2533184,0.26387638,1.3196845,0.5743623,0.010613189,-0.030457193,0.6303627,-0.04891421,-0.2779828,-0.51353866,0.022693535,794.17584,809.89014,800.6227,778.0586,815.5311,-0.1429443359375,0.01446533203125,0.97235107421875,1.92901611328125,0.79254150390625,4.5758056640625,1,1.0,1.0,1.0,1.0,40.00
2020-04-08 10:35:15.966,0.7807421,0.24576709,0.005727901,0.85281485,0.6495729,0.21172532,0.23493887,0.59613365,1.1790022,0.36203066,0.3578557,1.1711634,0.49666002,0.081291065,-0.036210824,0.61841434,-0.04203154,-0.29199675,-0.70116484,0.10117472,825.2015,809.0842,800.2198,816.7399,782.0879,-0.1373291015625,0.018798828125,0.9722900390625,1.413116455078125,-0.231781005859375,4.628143310546875,1,1.0,1.0,1.0,1.0,40.00
2020-04-08 10:35:16.969,0.61526495,0.25408942,0.23135215,0.64926505,0.7188375,0.29812717,0.13376136,0.4706854,1.2286665,0.4018218,0.25260007,1.1455437,0.47902423,0.11861484,0.048832014,0.6310873,-0.15005317,-0.2670621,-0.6754895,-0.015298634,813.1135,801.4286,795.78754,812.3077,831.2454,-0.14013671875,0.01654052734375,0.9619140625,1.951446533203125,0.97198486328125,4.74029541015625,1,1.0,1.0,1.0,1.0,40.00
2020-04-08 10:35:17.973,0.640532,0.3484156,0.28491724,0.5296209,0.13598925,-0.051041845,-0.0734364,0.21204326,0.77005816,0.13256487,0.16541453,1.1757704,0.13859202,0.053758044,-0.13522165,0.52247053,-0.20055468,-0.18400688,-0.65495515,-0.11336027,796.1905,807.47253,805.8608,790.9524,760.7326,-0.13250732421875,0.02081298828125,0.98052978515625,2.041168212890625,-0.3289794921875,4.127197265625,1,1.0,1.0,1.0,1.0,40.00
2020-04-08 10:35:18.980,0.7683097,0.04996839,0.27181476,0.6110159,0.5945858,-0.41437638,-0.15831313,0.28175402,0.9719803,0.10309611,0.014077261,1.2812575,0.34165847,-0.14454052,-0.15258868,0.589403,-0.3072103,-0.34267166,-0.6704616,-0.12641294,809.4872,799.41394,805.4579,813.5165,829.2308,-0.13623046875,0.0189208984375,0.96783447265625,2.10845947265625,0.844879150390625,4.42626953125,1,1.0,1.0,1.0,1.0,40.00
2020-04-08 10:35:20.009,0.48995078,0.064921685,0.22128543,0.30755723,0.62812877,-0.18776612,-0.1338398,0.37401745,0.96648896,0.23539175,0.40246615,1.2089387,0.2960247,-0.12819165,-0.16025,0.40849653,-0.37879097,-0.28561544,-0.5987381,-0.21587661,816.7399,806.6667,805.05493,820.7692,821.5751,-0.13763427734375,0.01715087890625,0.96783447265625,1.876678466796875,0.94207763671875,4.179534912109375,1,1.0,1.0,1.0,1.0,40.00
2020-04-08 10:35:21.010,0.6003976,0.20070143,-0.03279445,0.45000175,0.5136249,-0.055755153,0.0062578204,0.47859776,1.0370728,0.3118286,0.50590235,1.1702594,0.25962204,0.06103228,-0.07356419,0.38546506,-0.14648965,-0.26800957,-0.5050678,-0.06482684,815.5311,816.337,803.8461,807.8755,778.0586,-0.1273193359375,0.017578125,0.97320556640625,1.861724853515625,-0.246734619140625,4.11224365234375,1,1.0,1.0,1.0,1.0,40.00
2020-04-08 10:35:22.017,0.5203284,0.17053209,-0.0058953995,0.5754611,0.42149663,0.03092014,0.20202352,0.48602664,1.0292537,0.25778443,0.4733201,1.1519032,0.28790236,-0.0482625,-0.27302864,0.42220995,-0.050870623,-0.23345675,-0.7017674,-0.006485637,794.57874,802.6374,798.20514,799.011,790.54944,-0.11944580078125,0.02105712890625,0.974365234375,1.6748046875,-0.171966552734375,4.4561767578125,1,1.0,1.0,1.0,1.0,40.00
2020-04-08 10:35:23.026,0.4876366,0.046800513,-0.18629164,0.57510126,0.25794688,-0.14506157,0.097891524,0.35712275,0.9076691,0.13103218,0.33574197,1.176154,0.36415535,-0.02078621,-0.23143801,0.39282873,-0.014492193,-0.24967115,-0.4390954,-0.027777053,794.9817,806.26373,802.23444,806.26373,795.78754,-0.123046875,0.021240234375,0.97271728515625,1.7645263671875,1.517791748046875,4.388885498046875,1,1.0,1.0,1.0,1.0,40.00
2020-04-08 10:35:24.029,0.7031717,0.1447791,0.21064334,0.8928921,0.28770232,-0.3410463,-0.21160519,0.3889451,0.8499508,0.13536914,0.2232273,1.0490024,0.44143155,0.06713448,-0.09035268,0.69943994,0.03603665,-0.27997318,-0.5860201,0.105795436,793.7729,798.20514,807.0696,800.2198,829.2308,-0.12127685546875,0.02392578125,0.97637939453125,1.951446533203125,0.725250244140625,5.51788330078125,1,1.0,1.0,1.0,1.0,40.00
2020-04-08 10:35:25.030,0.57905394,0.025670692,0.12407423,0.6146754,0.39303258,-0.21084003,7.6360034E-4,0.44126257,1.1515083,0.28626856,0.49343473,1.2826362,0.60120195,-0.029993584,-0.009448516,0.7585529,-0.09946401,-0.35220528,-0.5821916,-0.12662856,786.1172,789.34064,805.8608,801.8315,746.63007,-0.1165771484375,0.024658203125,0.96368408203125,2.7215576171875,1.891632080078125,3.22998046875,1,1.0,1.0,1.0,1.0,40.00
2020-04-08 10:35:26.039,0.5283012,-0.1403547,0.051758897,0.5617277,0.44171712,-0.48398903,-0.26417607,0.5509606,1.2422069,0.491562,0.50641984,1.3335967,0.40263253,0.12935504,-0.09108801,0.484775,-0.027043847,-0.33441928,-0.4735821,0.026649227,765.16486,790.14655,795.38464,760.32965,798.20514,-0.11865234375,0.013916015625,0.97540283203125,2.093505859375,-0.2691650390625,3.955230712890625,1,1.0,1.0,1.0,1.0,40.00
2020-04-08 10:35:27.048,0.6877004,0.34843317,0.32887554,0.741034,0.49989933,-0.27480647,-0.39441457,0.53718174,1.2206477,0.27751216,0.22624527,1.4476991,0.5577961,0.19264519,-0.09295049,0.4071877,-0.047190633,-0.3131903,-0.47721568,-0.12565017,788.5348,801.02563,796.1905,806.26373,845.34796,-0.12066650390625,0.0242919921875,0.9833984375,2.355194091796875,0.097198486328125,3.42437744140625,1,1.0,1.0,1.0,1.0,40.00
2020-04-08 10:35:28.053,0.57564545,0.42202285,0.42205974,0.6711209,0.48766783,0.053459436,-0.1594467,0.47318816,1.1781783,0.1682248,0.11566572,1.3612453,0.51461905,0.1699482,-0.07035148,0.52089286,-0.0596079,-0.38292453,-0.49169007,0.05266898,774.0293,791.75824,799.41394,776.4469,758.315,-0.1146240234375,0.02020263671875,0.9783935546875,1.33087158203125,0.127105712890625,4.493560791015625,1,1.0,1.0,1.0,1.0,40.00
2020-04-08 10:35:29.075,0.846164,0.30866355,0.3450959,0.7428333,0.5742263,0.28074625,0.05265624,0.5913248,0.94872,0.24696422,0.27759153,1.3747648,0.392536,0.00463909,-0.0835261,0.64549136,-0.16380979,-0.3289537,-0.5206007,0.01999657,790.14655,800.6227,802.23444,803.0403,660.80585,-0.11956787109375,0.0234375,0.96942138671875,2.19818115234375,1.8841552734375,4.0673828125,1,1.0,1.0,1.0,1.0,40.00
2020-04-08 10:35:30.087,0.7205846,0.058011685,0.120416984,0.7276515,0.60254395,-0.09082036,0.12811819,0.7439739,1.0219,0.27290624,0.34059584,1.3207772,0.3516188,-0.12975936,-0.08416049,0.620181,-0.3882894,-0.30964774,-0.5686365,0.02999193,790.54944,805.4579,795.38464,815.5311,907.8022,-0.119140625,0.022216796875,0.9747314453125,1.51031494140625,0.4486083984375,4.844970703125,1,1.0,1.0,1.0,1.0,40.00
2020-04-08 10:35:31.110,0.77727264,0.23943226,0.012177314,0.9230582,0.64895433,-0.13059625,0.21313004,0.697818,0.9572896,0.3500011,0.46916932,1.3557185,0.43859428,0.05554001,-0.013661651,0.5881677,-0.31238446,-0.3057479,-0.65152025,-0.004727913,782.0879,792.96704,796.99634,794.17584,778.0586,-0.1165771484375,0.02203369140625,0.971435546875,1.71966552734375,0.1495361328125,3.94775390625,1,1.0,1.0,1.0,1.0,40.00
2020-04-08 10:35:32.124,0.77070385,-0.012135689,0.5619139,0.7614954,0.69412804,-0.2083075,0.08303584,0.67209363,0.9945239,0.39806944,0.34216094,1.2596906,0.4281107,0.0645123,-0.096510954,0.6384954,-0.17989582,-0.35713434,-0.67754793,-0.032335088,775.64105,790.9524,792.96704,799.81683,846.1539,-0.11126708984375,0.0244140625,0.9736328125,2.19818115234375,-0.2691650390625,3.87298583984375,1,1.0,1.0,1.0,1.0,40.00
2020-04-08 10:35:33.128,0.5926493,-0.007789781,0.66140497,0.6017065,0.57929474,-0.015255567,-0.101158746,0.4296274,1.2640578,0.36148307,0.10475406,1.2734141,0.37818527,0.08320586,-0.12631541,0.5346139,-0.095250726,-0.29708382,-0.53583163,-0.09759925,802.6374,797.3993,805.4579,796.5934,878.7912,-0.11480712890625,0.027099609375,0.97015380859375,1.921539306640625,0.79254150390625,4.837493896484375,1,1.0,1.0,1.0,1.0,40.00
2020-04-08 10:35:34.135,0.2116599,0.0123346,0.33869708,0.4156683,0.3586378,-0.22718093,0.15310207,0.5123045,1.2605046,0.32513982,0.38752487,1.2749264,0.50165015,0.091182835,-0.120092124,0.5161446,-0.27620146,-0.2651161,-0.39864326,-0.19123173,810.696,803.0403,801.02563,810.696,854.61536,-0.1165771484375,0.02459716796875,0.96923828125,1.742095947265625,1.854248046875,4.90478515625,1,1.0,1.0,1.0,1.0,40.00
2020-04-08 10:35:35.144,0.49630603,0.11372543,0.29783058,0.8013592,0.602946,0.22064847,0.12900795,0.58062845,1.0922894,0.3151032,0.3871005,0.8804378,0.5509953,0.023955515,-0.0047067404,0.4576798,-0.3562513,-0.35477763,-0.46962968,-0.1250284,812.71063,807.47253,799.81683,830.84247,847.3626,-0.12139892578125,0.0206298828125,0.9903564453125,2.1533203125,0.2093505859375,4.17205810546875,1,1.0,1.0,1.0,1.0,40.00
2020-04-08 10:35:36.146,0.5384608,0.2405149,0.44419017,0.64914733,0.74938834,0.135168,0.12154089,0.7828396,0.97370106,0.16647084,0.31197542,1.1854436,0.34454346,0.0432865,0.07860357,0.5019788,-0.24681722,-0.33527076,-0.6190136,0.03544387,801.02563,807.0696,799.81683,810.696,944.0659,-0.11590576171875,0.031982421875,0.97509765625,1.24114990234375,-0.261688232421875,3.96270751953125,1,1.0,1.0,1.0,1.0,40.00
2020-04-08 10:35:37.150,0.21519977,0.09175879,0.2142086,0.34366322,0.4837482,0.12904239,0.13387382,0.757584,1.0651335,0.36346126,0.35181257,0.9847583,0.33987752,0.05670927,0.005280715,0.3621714,-0.104663946,-0.18231025,-0.7124684,0.06534966,815.9341,806.6667,798.20514,815.5311,799.011,-0.1131591796875,0.0274658203125,0.9622802734375,1.846771240234375,0.85235595703125,4.059906005859375,1,1.0,1.0,1.0,1.0,40.00
2020-04-08 10:35:38.157,0.08875804,0.04330818,0.23470426,0.13958444,0.10404794,-0.09509923,-0.029088696,0.21836698,1.041565,0.30201495,0.30858326,0.89669734,0.37937406,0.13611636,-0.081698045,0.31248742,0.042809907,-0.14413057,-0.67065537,0.123353854,795.78754,801.4286,790.54944,811.9048,788.1319,-0.0960693359375,0.02947998046875,0.98272705078125,2.19818115234375,-0.657958984375,4.792633056640625,1,1.0,1.0,1.0,1.0,40.00
2020-04-08 10:35:39.166,0.6108351,0.31849438,0.47559005,0.5534172,0.3633461,0.038559366,-0.026545087,0.29189706,1.0135375,0.17250654,0.26260844,1.0175048,0.29110277,-0.06859716,-0.15220256,0.30266836,2.1765507E-5,-0.23667589,-0.5731414,0.17310302,820.3663,805.8608,812.71063,825.6044,838.0952,-0.09576416015625,0.03326416015625,0.9798583984375,2.07855224609375,-1.00189208984375,4.68048095703125,1,1.0,1.0,1.0,1.0,40.00
2020-04-08 10:35:40.166,0.89649004,0.5400153,0.47278038,0.68363863,0.60704243,-0.014982611,-0.087635696,0.56545717,1.0712123,0.11782147,0.30955073,0.9354514,0.3249915,-0.0040104263,-0.008170214,0.39473695,-0.025186725,-0.3166854,-0.5455004,-0.03941237,783.69965,791.3553,790.14655,805.05493,887.25275,-0.0946044921875,0.03814697265625,0.98260498046875,2.22808837890625,-0.142059326171875,4.538421630859375,1,1.0,1.0,1.0,1.0,40.00
2020-04-08 10:35:41.177,0.5876969,0.08838205,-0.14857715,0.65215945,0.5874856,0.025806231,-0.04031023,0.5035388,0.9029102,0.26056784,0.17171569,0.951285,0.24610662,0.108703084,-0.027838392,0.55102855,-0.09074998,-0.42154709,-0.55818444,-0.14488627,802.23444,809.0842,802.23444,821.1722,877.5824,-0.0853271484375,0.0413818359375,0.981689453125,1.577606201171875,-0.0897216796875,5.330963134765625,1,1.0,1.0,1.0,1.0,40.00
2020-04-08 10:35:42.188,0.34955162,0.15783267,0.070484184,0.56842995,0.5096866,0.2157459,-0.012484333,0.44276866,0.9086718,0.3899089,0.02491345,0.7896669,0.055056475,0.027434545,-0.03475545,0.39719927,-0.24741866,-0.1890746,-0.58329225,-0.12559967,819.15753,804.65204,803.0403,800.2198,806.6667,-0.083740234375,0.03741455078125,0.97869873046875,2.01873779296875,0.7177734375,4.94964599609375,1,1.0,1.0,1.0,1.0,40.00
2020-04-08 10:35:43.193,0.72668177,0.12666449,-0.17666866,0.63532525,0.33036292,0.015486839,-0.13838722,0.46694896,0.82470304,0.37525725,-0.11378722,1.0775673,0.29446208,0.00875667,-0.05270741,0.44701508,-0.22583814,-0.242121,-0.4633377,-0.14586364,819.9634,805.05493,796.5934,805.05493,820.3663,-0.0892333984375,0.03326416015625,0.97064208984375,2.041168212890625,1.039276123046875,4.47113037109375,1,1.0,1.0,1.0,1.0,40.00
2020-04-08 10:35:44.206,0.9276796,0.16054893,-0.22205138,0.531932,0.4500331,-0.10760943,-0.23186354,0.3210016,0.90746796,0.28373292,0.28079993,1.1571431,0.31893235,-0.043894194,-0.045210823,0.502897,-0.30722755,-0.3557837,-0.41609886,0.013328138,823.9927,807.8755,803.44324,821.1722,928.3516,-0.08758544921875,0.03692626953125,0.97564697265625,1.906585693359375,0.9271240234375,4.792633056640625,1,1.0,1.0,1.0,1.0,40.00
2020-04-08 10:35:45.208,0.819607,0.008304778,0.10121659,0.60034746,0.6871733,-0.013794423,-0.029008491,0.63271594,1.035404,0.2946555,0.37642857,1.2015991,0.22267029,-0.03936404,-0.11808696,0.42628807,-0.33078438,-0.37958822,-0.60185945,-0.079078354,806.6667,804.2491,796.5934,807.8755,876.77655,-0.078857421875,0.0313720703125,0.978271484375,2.041168212890625,0.04486083984375,4.179534912109375,1,1.0,1.0,1.0,1.0,40.00
2020-04-08 10:35:46.210,0.693997,-0.10525331,-0.036362674,0.55361813,0.5647314,-0.027635798,0.0799612,0.49740043,0.85582954,0.11682175,0.3618515,0.89650285,0.43335554,-0.114312135,-0.07775306,0.51613915,-0.22083062,-0.19024262,-0.599249,-0.04226383,821.1722,811.9048,804.65204,819.15753,816.7399,-0.0809326171875,0.0355224609375,0.982666015625,2.6617431640625,-0.52337646484375,4.059906005859375,1,1.0,1.0,1.0,1.0,40.00
2020-04-08 10:35:47.213,0.62536967,-0.046273,-0.13870986,0.5149284,0.55110395,0.13151082,0.031477533,0.5114573,0.76997614,0.20763949,0.34996584,1.2581958,0.28492925,-0.129135,-0.11483964,0.48954988,-0.16764693,-0.17078382,-0.45869792,0.042351983,836.4835,813.1135,803.44324,828.022,829.2308,-0.0802001953125,0.02130126953125,0.96661376953125,1.60003662109375,-0.76263427734375,4.852447509765625,1,1.0,1.0,1.0,1.0,40.00
2020-04-08 10:35:48.218,0.17308456,-0.0024693208,-0.12662715,0.25050208,0.4615386,-0.015389107,-0.022575418,0.26865107,0.7413917,0.21080628,0.35524946,1.3788368,0.34401056,0.0010078838,-0.13788985,0.4875795,-0.15664485,-0.3523795,-0.43499693,-0.08106143,821.1722,813.5165,804.2491,814.3223,780.87915,-0.07257080078125,0.021484375,0.98687744140625,1.68975830078125,0.13458251953125,3.730926513671875,1,1.0,1.0,1.0,1.0,40.00
2020-04-08 10:35:49.225,0.6772749,0.07561685,0.22010723,0.33611077,0.40467995,0.048727255,-0.11235169,0.38791898,1.0216324,0.18991767,0.28352705,1.0696325,0.47682163,0.08212304,0.029086241,0.63720983,-0.06258746,-0.3136074,-0.48162583,-0.026166273,817.5458,809.0842,802.6374,811.50183,809.4872,-0.06964111328125,0.02606201171875,0.98492431640625,2.04864501953125,0.575714111328125,4.149627685546875,1,1.0,1.0,1.0,1.0,40.00
2020-04-08 10:35:50.233,0.8704953,0.11308757,0.37413695,0.53016573,0.5212461,-0.11296826,-0.19383688,0.5942399,1.1004081,0.050303917,0.34357744,1.1609665,0.4795681,0.09098567,-0.07846888,0.48248357,-0.1488139,-0.33413196,-0.5576704,-0.029863479,803.0403,799.81683,795.38464,804.2491,793.7729,-0.0709228515625,0.03192138671875,0.9815673828125,1.786956787109375,0.710296630859375,4.94964599609375,1,1.0,1.0,1.0,1.0,40.00
2020-04-08 10:35:51.246,0.7942491,0.2177332,0.03796675,0.73580873,0.36374265,-0.13224141,-0.087958276,0.56259155,0.9665519,0.24087672,0.29092276,0.88877743,0.3069381,0.012739047,-0.024850981,0.41374478,-0.28955764,-0.3762485,-0.4225321,-0.068179645,787.326,796.1905,798.60803,795.38464,826.0073,-0.06768798828125,0.0380859375,0.9820556640625,2.534637451171875,0.538330078125,4.8150634765625,1,1.0,1.0,1.0,1.0,40.00
2020-04-08 10:35:52.253,0.59286314,0.09474509,0.0154852085,0.5000146,0.4968228,-0.06727805,0.03501133,0.78909576,0.9971427,0.42722252,0.2659225,1.1274465,0.42479488,-0.067178436,-0.036517255,0.42941788,-0.18900782,-0.35070962,-0.5434869,0.001583997,798.60803,802.23444,794.57874,795.78754,831.2454,-0.056640625,0.037841796875,0.98797607421875,2.43743896484375,1.016845703125,4.71038818359375,1,1.0,1.0,1.0,1.0,40.00
2020-04-08 10:35:53.254,0.5995734,0.050436836,-0.0069360645,0.19176637,0.500275,-0.19616938,-0.29870394,0.6933621,0.80450016,0.4332075,0.21807368,1.1217079,0.34794727,0.02199175,-0.1869147,0.41632843,0.014625875,-0.25310257,-0.5937799,-0.008601779,777.25275,800.6227,799.011,799.011,850.58606,-0.07696533203125,0.02850341796875,0.97735595703125,1.697235107421875,2.2430419921875,4.47113037109375,1,1.0,1.0,1.0,1.0,40.00
2020-04-08 10:35:54.257,0.22962137,0.34913236,0.11205084,0.12177678,0.35458598,0.029117888,-0.18622491,0.5094709,0.8375824,0.26943982,0.21152467,0.88948846,0.26309684,0.020537477,-0.1046326,0.38732564,-0.045495003,-0.20537442,-0.59814984,0.061485484,793.7729,794.57874,799.41394,799.81683,689.81683,-0.086181640625,0.0247802734375,0.97576904296875,2.28790283203125,-0.3887939453125,4.239349365234375,1,1.0,1.0,1.0,1.0,40.00
2020-04-08 10:35:55.265,0.60472256,0.17256403,0.35686627,0.35835513,0.36623657,0.12464743,-0.09026469,0.34109312,0.59838295,0.2842623,0.21654624,0.72371083,0.3749209,0.051339306,-0.16334882,0.30108365,-0.2233579,-0.32341897,-0.6006806,-0.073623806,799.011,810.293,805.4579,794.9817,839.707,-0.078125,0.02069091796875,0.98828125,1.7645263671875,1.009368896484375,4.9945068359375,1,1.0,1.0,1.0,1.0,40.00
2020-04-08 10:35:56.276,0.7163983,0.30217543,0.55661017,0.51267797,0.3047644,-0.120571524,-0.12651306,0.44344607,0.82411766,0.11390946,0.104279056,0.75064766,0.56656224,-0.09855116,-0.07732499,0.53899693,-0.12079904,-0.28510687,-0.5177468,0.006483151,776.04395,792.1612,804.65204,780.4762,719.6337,-0.06915283203125,0.034423828125,0.97064208984375,1.921539306640625,2.295379638671875,3.9776611328125,1,1.0,1.0,1.0,1.0,40.00
2020-04-08 10:35:57.303,0.6545819,0.21624371,0.22768445,0.6544961,0.16345227,-0.1937306,-0.11711499,0.15228526,0.8287103,0.030610917,0.21003847,0.9447993,0.4990038,-0.12504268,-0.0651289,0.61150557,-0.24919854,-0.4024444,-0.42720613,-0.03306497,785.7143,797.3993,794.17584,790.54944,743.4066,-0.08416748046875,0.02557373046875,0.98028564453125,1.12152099609375,1.9140625,4.104766845703125,1,1.0,1.0,1.0,1.0,40.00
2020-04-08 10:35:58.309,0.54080546,0.28117862,0.009717936,0.5963201,0.45428368,0.029331708,0.068795376,0.23452677,0.8238093,0.044107176,0.2213761,0.9346547,0.5053683,-0.040994607,-0.04544526,0.6703087,-0.16356081,-0.48621866,-0.39684603,0.02280402,784.5055,797.8022,801.02563,803.0403,747.4359,-0.0858154296875,0.0345458984375,0.98175048828125,2.392578125,0.46356201171875,5.495452880859375,1,1.0,1.0,1.0,1.0,40.00
2020-04-08 10:35:59.312,0.5800122,0.0803968,0.42527226,0.57889587,0.453505,-0.13245663,0.25679943,0.45027608,1.0778431,0.18782257,0.24542715,0.9888306,0.55172426,-0.020430679,-0.04398713,0.6646295,-0.15702988,-0.5272513,-0.6011561,0.07684027,780.4762,801.4286,797.8022,780.87915,857.4359,-0.07391357421875,0.03204345703125,0.97857666015625,2.07855224609375,-0.680389404296875,4.822540283203125,1,1.0,1.0,1.0,1.0,40.00
2020-04-08 10:36:00.314,0.5848425,0.01662944,0.35937065,0.65940285,0.46957913,0.12574036,0.2960995,0.5229997,1.2455733,0.32015392,0.3080437,0.97179604,0.46117634,0.0934075,-0.11968372,0.6190206,-0.19823126,-0.49459705,-0.6301299,-0.091884665,793.36993,801.02563,807.8755,799.81683,751.8681,-0.080078125,0.0323486328125,0.98516845703125,1.906585693359375,0.07476806640625,4.448699951171875,1,1.0,1.0,1.0,1.0,40.00
2020-04-08 10:36:01.324,0.45335326,0.07384183,0.510876,0.6011597,0.5204063,0.22429463,0.0409279,0.6022073,1.102333,0.48210746,0.2835228,0.92323315,0.48080513,0.04946758,-0.071528256,0.45371652,-0.28129318,-0.23626517,-0.5552801,-0.07184923,765.9707,790.14655,805.05493,794.9817,880.40295,-0.083740234375,0.0186767578125,0.9716796875,1.637420654296875,0.575714111328125,3.895416259765625,1,1.0,1.0,1.0,1.0,40.00
2020-04-08 10:36:02.332,0.39350286,0.036642432,0.24823104,0.7738185,0.5287181,0.027946077,-0.28609398,0.5837704,0.9575669,0.20988993,0.23691022,0.92108476,0.56663877,-0.1217841,-0.14690804,0.56401384,-0.35420796,-0.22664343,-0.49571687,0.046998482,767.5824,788.5348,789.7436,778.86444,707.5458,-0.0738525390625,0.03155517578125,0.981201171875,2.70660400390625,0.64300537109375,4.78515625,1,1.0,1.0,1.0,1.0,40.00
2020-04-08 10:36:03.336,0.5606102,0.2681856,0.08759686,0.8726047,0.57769734,0.1482528,-0.17065588,0.5136352,0.89923656,0.15663877,0.46268594,0.9100032,0.5447693,0.051654194,-0.1142553,0.5813831,-0.23440664,-0.21146291,-0.5941525,0.06868552,780.4762,796.5934,797.3993,790.9524,667.25275,-0.0714111328125,0.0162353515625,0.9810791015625,1.517791748046875,1.697235107421875,4.605712890625,1,1.0,1.0,1.0,1.0,40.00
2020-04-08 10:36:04.361,0.7373054,0.013671427,-0.06297038,0.666694,0.2910024,0.16877125,0.06318542,0.29746008,1.1288053,0.22693142,0.47601405,1.1564856,0.3984115,0.051029537,0.0017396038,0.6445737,-0.13652824,-0.26456356,-0.5704739,-0.057694957,778.86444,799.81683,799.81683,786.1172,776.4469,-0.084228515625,0.02044677734375,0.982666015625,1.86920166015625,-0.157012939453125,4.0374755859375,1,1.0,1.0,1.0,1.0,40.00
2020-04-08 10:36:05.370,0.63861585,0.023480203,0.068410486,0.6215855,0.2488183,0.22720912,-0.14264335,0.24165627,1.0257022,0.24659273,0.2658953,1.1856494,0.35704204,0.048260108,-0.12474025,0.6869273,-0.10201707,-0.30846545,-0.5953047,0.1333247,796.5934,799.81683,795.78754,803.0403,809.89014,-0.0843505859375,0.0196533203125,0.9832763671875,1.95892333984375,1.158905029296875,4.089813232421875,1,1.0,1.0,1.0,1.0,40.00
2020-04-08 10:36:06.372,0.7589937,0.31878695,0.06171275,0.63206327,0.44727284,0.0160835,-0.030491756,0.50780785,0.9949409,0.1469879,0.24650867,1.1378666,0.2903277,0.10698243,-0.118935116,0.54893947,-0.3410992,-0.32980707,-0.5162877,0.1267245,782.8938,796.1905,801.8315,807.47253,759.12085,-0.0855712890625,0.02587890625,0.98382568359375,1.30096435546875,2.370147705078125,4.1571044921875,1,1.0,1.0,1.0,1.0,40.00
2020-04-08 10:36:07.372,0.8297965,0.15971386,0.16321525,0.7625317,0.4872953,-0.14174514,-0.0658665,0.4213702,0.9555212,0.04033957,0.21754596,1.1745342,0.45697865,0.072705925,-0.029814359,0.7461092,-0.39140758,-0.3107028,-0.4935292,-0.082701355,795.38464,788.5348,797.8022,798.60803,909.81683,-0.13861083984375,0.01641845703125,0.9666748046875,2.1234130859375,2.0037841796875,3.671112060546875,1,1.0,1.0,1.0,1.0,40.00
2020-04-08 10:36:08.376,0.5671013,0.15555826,0.3781545,0.727735,0.4766742,-0.25910822,-0.027718864,0.38120088,0.8619658,0.2549918,0.34282434,1.035569,0.43692166,0.026844954,-0.027688537,0.59879273,-0.17730324,-0.3465764,-0.49438506,-0.03306327,786.52014,798.60803,796.5934,801.4286,761.13556,-0.1583251953125,0.0262451171875,0.95465087890625,1.742095947265625,0.3289794921875,4.777679443359375,1,1.0,1.0,1.0,1.0,40.00
2020-04-08 10:36:09.402,0.8390233,0.51487726,0.13068749,0.57012296,0.7504599,0.020519568,0.0305765,0.44413614,1.0260979,0.32440844,0.34976968,1.3126627,0.4271477,0.10046038,-0.05737075,0.65178806,-0.10087422,-0.30917832,-0.5724812,0.13908875,781.28204,789.34064,793.36993,797.8022,752.674,-0.15435791015625,0.0169677734375,0.9638671875,1.607513427734375,0.64300537109375,4.284210205078125,1,1.0,1.0,1.0,1.0,40.00
2020-04-08 10:36:10.410,0.5975176,0.3126823,0.2124827,0.46969795,0.3616818,-0.006662235,0.11170366,0.32747918,1.1285307,0.3611608,0.32695872,1.3176947,0.3183551,0.0554186,-0.039606605,0.48918426,-0.1541851,-0.2130755,-0.5029913,-0.07390038,794.57874,803.44324,803.0403,790.9524,693.8461,-0.15338134765625,0.025390625,0.97039794921875,1.98883056640625,0.13458251953125,3.730926513671875,1,1.0,1.0,1.0,1.0,40.00
2020-04-08 10:36:11.412,0.5231729,0.11861368,0.15141073,0.5600263,0.5318786,-0.09855897,0.1825231,0.47624534,0.9987772,0.3488657,0.31236982,0.8481098,0.34994292,0.08060036,0.049666822,0.47899765,-0.19004934,-0.12980545,-0.47130787,0.013314447,805.05493,803.44324,810.696,815.9341,742.1978,-0.15325927734375,0.0220947265625,0.97216796875,1.801910400390625,0.321502685546875,4.94964599609375,1,1.0,1.0,1.0,1.0,40.00
2020-04-08 10:36:12.415,0.48838824,-0.02790594,0.19179864,0.35382605,0.43515846,-0.26997524,0.07671637,0.43191198,1.0600785,0.40598315,0.2820471,1.0877374,0.27762863,0.08510126,0.013578004,0.44781956,-0.23509838,-0.3071115,-0.50698346,0.030319171,796.1905,810.696,809.0842,806.6667,869.5238,-0.1507568359375,0.02508544921875,0.97900390625,2.355194091796875,-0.142059326171875,4.373931884765625,1,1.0,1.0,1.0,1.0,40.00
2020-04-08 10:36:13.437,0.78975,0.10898012,0.2432058,0.559601,0.34836984,-0.04624693,0.174655,0.5072991,1.5419163,0.35313404,0.292622,1.3436323,0.5259711,0.13730177,-0.006314745,0.47906384,-0.16648816,-0.3451317,-0.69894475,-0.14549057,804.2491,796.1905,797.8022,803.0403,925.12823,-0.1383056640625,0.0216064453125,0.98193359375,2.1234130859375,0.082244873046875,4.329071044921875,1,1.0,1.0,1.0,1.0,40.00
2020-04-08 10:36:14.442,0.892209,0.16393618,0.4900698,0.814609,0.6001886,-0.17909473,0.14318156,0.71743906,1.6512531,0.15674171,0.29387358,1.4363248,0.6801755,0.09164124,0.095829695,0.7692382,-0.16345973,-0.19712952,-0.43709904,-0.18854135,803.44324,804.65204,801.8315,817.9487,849.7802,-0.1488037109375,0.01220703125,0.97613525390625,1.472930908203125,1.278533935546875,4.583282470703125,1,1.0,1.0,1.0,1.0,40.00
2020-04-08 10:36:15.462,0.79837596,0.27382046,0.124261566,0.70348495,0.5488607,-0.06332441,-0.12285907,0.44680247,1.3641043,0.22614138,0.2011558,1.1026914,0.43862188,0.006567442,0.017417593,0.5691808,-0.2190458,-0.17672478,-0.44938013,0.061969794,813.91943,811.0989,800.2198,817.1429,848.97437,-0.13885498046875,0.0220947265625,0.97137451171875,1.772003173828125,-1.45050048828125,4.5458984375,1,1.0,1.0,1.0,1.0,40.00
2020-04-08 10:36:16.477,0.6570413,0.14924295,-0.023213265,0.3836992,0.39910722,-0.014459094,0.22313477,0.3597145,1.1154978,0.17387554,0.330924,1.0816383,0.3764333,-0.12642936,-0.038523734,0.5139563,-0.22974157,-0.2621064,-0.4859125,0.025322929,821.5751,811.9048,805.05493,802.23444,738.1685,-0.1339111328125,0.011474609375,0.9854736328125,1.039276123046875,0.538330078125,3.701019287109375,1,1.0,1.0,1.0,1.0,40.00
2020-04-08 10:36:17.488,0.59417045,0.27252558,0.2734615,0.52298707,0.5638507,0.086156435,0.31397092,0.70794743,0.9700666,0.28991482,0.3463984,1.4011921,0.28204244,-0.079747625,-0.10505293,0.5323223,-0.2073721,-0.2689019,-0.4629725,0.026093014,811.50183,801.8315,804.65204,802.6374,693.0403,-0.1187744140625,0.01922607421875,0.97955322265625,2.43743896484375,-0.1495361328125,5.36834716796875,1,1.0,1.0,1.0,1.0,40.00
2020-04-08 10:36:18.511,0.3892093,-0.07718898,0.11181181,0.78935367,0.49016467,0.060357,0.15881026,0.44468692,1.0795362,0.32017606,0.2694307,1.3751688,0.5030707,-0.046596978,-0.043867625,0.6498697,-0.40350115,-0.31809822,-0.50299776,-0.05817672,795.38464,803.44324,798.60803,792.96704,725.2747,-0.128662109375,0.02783203125,0.975341796875,2.88604736328125,-1.293487548828125,4.007568359375,1,1.0,1.0,1.0,1.0,40.00
2020-04-08 10:36:19.523,0.39265066,0.29410282,0.11907513,1.0941585,0.30064332,-0.10738194,-0.11019226,0.4291107,1.0576679,0.4476781,0.12949371,1.203122,0.4843391,-0.07808425,-0.048405357,0.6091885,-0.28943646,-0.28234428,-0.3934414,0.0020814706,781.685,793.7729,792.5641,788.5348,803.8461,-0.12969970703125,0.03167724609375,0.97686767578125,1.60003662109375,0.2392578125,4.42626953125,1,1.0,1.0,1.0,1.0,40.00
2020-04-08 10:36:20.524,0.46499777,0.18911222,0.24227135,0.4766147,0.21491286,-0.13530172,0.20906082,0.43349865,1.010473,0.24793002,0.121377565,1.1371605,0.40615088,-0.10148962,-0.13941051,0.57969713,-0.26795056,-0.2766236,-0.51312166,-0.052700724,784.90845,800.6227,796.5934,785.7143,755.89746,-0.12646484375,0.03240966796875,0.9747314453125,1.846771240234375,0.770111083984375,4.44122314453125,1,1.0,1.0,1.0,1.0,40.00
2020-04-08 10:36:21.531,0.11955225,0.3595032,0.49682584,0.42111614,0.12049446,-0.10905337,-0.1400839,0.41447574,1.2305326,0.24985784,0.23911542,1.0480523,0.3970382,-0.012276656,-0.119940646,0.483984,-0.16829312,-0.3404144,-0.35424927,-0.17952567,781.28204,793.36993,792.5641,780.07324,684.17584,-0.124755859375,0.03070068359375,0.968505859375,1.7645263671875,0.76263427734375,4.6356201171875,1,1.0,1.0,1.0,1.0,40.00
2020-04-08 10:36:22.551,0.20244925,0.23528552,0.25284952,0.68997055,0.4366633,-0.11580824,-0.30555624,0.44363543,1.4074799,0.40560317,0.1377196,1.1268723,0.47114,0.0031071245,-0.029872179,0.53141284,-0.2261814,-0.27080467,-0.3363669,-0.12805903,801.4286,803.8461,780.4762,777.25275,670.4762,-0.11285400390625,0.0233154296875,0.9744873046875,1.86920166015625,1.039276123046875,4.284210205078125,1,1.0,1.0,1.0,1.0,40.00
2020-04-08 10:36:23.563,0.33524412,0.19403902,0.35661307,0.27453387,0.43854752,-0.10838763,-0.057581916,0.30627894,1.1357709,0.40597036,-0.06369256,1.1353022,0.5393052,-0.021618837,-0.049211312,0.6345676,-0.24018945,-0.2518473,-0.41587302,-0.084320016,788.1319,801.4286,799.011,797.3993,853.00366,-0.10540771484375,0.0269775390625,0.977783203125,1.2860107421875,-0.097198486328125,3.5888671875,1,1.0,1.0,1.0,1.0,40.00
2020-04-08 10:36:24.569,0.69401485,-0.11695258,0.08335077,0.8550422,0.6236352,-0.1372905,0.11901223,0.7027004,0.8822882,0.22394696,0.010467654,1.2374958,0.5937621,0.016581673,-0.11006181,0.5156304,0.0650114,-0.38232964,-0.5296021,-0.050132915,787.326,800.6227,801.4286,796.5934,813.5165,-0.10760498046875,0.02947998046875,0.9757080078125,2.086029052734375,1.9439697265625,3.87298583984375,1,1.0,1.0,1.0,1.0,40.00
2020-04-08 10:36:25.582,0.82712895,-0.19169337,0.0054665636,0.8943266,0.6698388,-0.072543845,0.20030048,0.7461647,0.8733406,0.10202117,0.07021254,1.2133557,0.54460233,0.03644248,-0.14517266,0.53423655,0.05957538,-0.2871116,-0.59257495,-0.07547356,774.83514,790.9524,794.17584,791.75824,757.9121,-0.11041259765625,0.03472900390625,0.97772216796875,2.04864501953125,1.495361328125,4.254302978515625,1,1.0,1.0,1.0,1.0,40.00
2020-04-08 10:36:26.584,0.932057,-0.07042127,0.15950285,0.83683705,0.44450948,0.031997327,0.0034777257,0.5638865,1.1363816,0.360281,0.113626696,1.2452967,0.54258674,-0.061592113,-0.13294066,0.53385174,-0.18570374,-0.25055712,-0.57734317,-0.15002191,772.8205,800.6227,799.81683,787.326,810.293,-0.10540771484375,0.0347900390625,0.97320556640625,1.89910888671875,-0.07476806640625,4.56085205078125,1,1.0,1.0,1.0,1.0,40.00
2020-04-08 10:36:27.586,0.5064373,0.13377649,0.008667403,0.8416466,0.39819953,0.052744642,-0.36039665,0.58625615,1.1167274,0.40436473,0.042722575,0.97143424,0.3447115,-0.04579325,-0.18553638,0.44342855,-0.31233683,-0.23811637,-0.5789891,-0.1186244,785.7143,791.3553,793.7729,801.02563,862.27106,-0.104736328125,0.03314208984375,0.96575927734375,3.491668701171875,2.130889892578125,4.83001708984375,1,1.0,1.0,1.0,1.0,40.00
2020-04-08 10:36:28.599,0.6684704,0.18871263,0.47797942,0.18664017,0.43610993,-0.22548424,-0.0747802,0.4878861,0.9422553,0.24018475,0.357846,1.1125556,0.2959023,0.07402062,-0.16676122,0.5644131,-0.20275718,-0.18597955,-0.6832843,-0.0636834,768.7912,793.36993,802.23444,786.1172,768.7912,-0.1217041015625,0.03033447265625,0.974609375,1.577606201171875,1.607513427734375,3.93280029296875,1,1.0,1.0,1.0,1.0,40.00
2020-04-08 10:36:29.630,0.70305926,0.09292747,0.24016285,0.5459023,0.22688438,-0.30967602,0.061738897,0.32283917,0.96259874,0.008540015,0.3465602,1.2262926,0.5790387,0.12380956,0.014039277,0.5894457,-0.2065888,-0.3007141,-0.6131769,-0.043941326,773.6264,796.5934,794.9817,782.8938,861.06226,-0.1058349609375,0.0303955078125,0.97991943359375,1.0467529296875,0.560760498046875,4.3963623046875,1,1.0,1.0,1.0,1.0,40.00
2020-04-08 10:36:30.640,0.75994235,-0.20518209,0.22602332,0.7348874,0.25841,-0.1436297,0.045422543,0.5888983,1.2514541,0.43008336,0.13170087,1.2293963,0.729518,0.10173003,-0.008854657,0.6041654,-0.27359766,-0.35873875,-0.5037794,-0.09577706,809.0842,807.8755,803.0403,818.7546,822.381,-0.11016845703125,0.02618408203125,0.97027587890625,1.936492919921875,0.829925537109375,4.65057373046875,1,1.0,1.0,1.0,1.0,40.00
2020-04-08 10:36:31.643,0.75994235,-0.20518209,0.22602332,0.7348874,0.25841,-0.1436297,0.045422543,0.5888983,1.2514541,0.43008336,0.13170087,1.2293963,0.729518,0.10173003,-0.008854657,0.6041654,-0.27359766,-0.35873875,-0.5037794,-0.09577706,809.0842,807.8755,803.0403,818.7546,822.381,-0.11016845703125,0.02618408203125,0.97027587890625,1.936492919921875,0.829925537109375,4.65057373046875,1,1.0,1.0,1.0,1.0,40.00
2020-04-08 10:36:42.662,0.75994235,-0.20518209,0.22602332,0.7348874,0.25841,-0.1436297,0.045422543,0.5888983,1.2514541,0.43008336,0.13170087,1.2293963,0.729518,0.10173003,-0.008854657,0.6041654,-0.27359766,-0.35873875,-0.5037794,-0.09577706,772.4176,800.6227,801.8315,763.5531,814.7253,-0.10040283203125,0.02301025390625,0.9837646484375,1.5850830078125,0.79254150390625,3.372039794921875,1,1.0,1.0,1.0,1.0,40.00
2020-04-08 10:36:43.667,0.0,0.0,0.0,0.0,0.0,0.0,0.0,0.0,0.0,0.0,0.0,0.0,0.0,0.0,0.0,0.0,0.0,0.0,0.0,0.0,782.8938,796.5934,796.99634,772.8205,815.5311,-0.1025390625,0.02984619140625,0.97918701171875,1.65985107421875,0.94207763671875,4.41131591796875,0,4.0,4.0,4.0,4.0,40.00
2020-04-08 10:36:44.679,0.0,0.0,0.0,0.0,0.0,0.0,0.0,0.0,0.0,0.0,0.0,0.0,0.0,0.0,0.0,0.0,0.0,0.0,0.0,0.0,772.01465,793.7729,797.8022,772.8205,633.4066,-0.09417724609375,0.02935791015625,0.9739990234375,1.495361328125,0.40374755859375,4.702911376953125,0,4.0,4.0,4.0,4.0,40.00
2020-04-08 10:36:45.703,0.67918247,0.07383173,-0.100606106,0.71398973,0.36483032,-0.11611944,-0.01902309,0.44902074,0.30839902,0.40054998,-0.16759862,1.0928932,0.28659913,0.048535407,-0.16311921,0.5190451,-0.6422037,-0.48408136,-0.5809902,-0.19470768,785.7143,792.5641,794.17584,792.96704,752.674,-0.10186767578125,0.02496337890625,0.98638916015625,1.547698974609375,0.0897216796875,4.91973876953125,1,1.0,1.0,1.0,1.0,40.00
2020-04-08 10:36:46.704,0.8957469,0.68012226,0.62276965,0.74279237,0.3613475,-0.20327227,0.13841434,0.20668285,0.97996515,0.24357039,0.53140545,0.9695207,0.38017803,0.02960897,-0.18624125,0.29262853,-0.35537273,-0.36146745,-0.4150088,-0.15369858,770.0,793.7729,799.011,790.14655,798.60803,-0.0919189453125,0.029052734375,0.98345947265625,2.1234130859375,0.46356201171875,4.14215087890625,1,1.0,1.0,1.0,1.0,40.00
2020-04-08 10:36:47.720,1.0795177,0.8964535,0.84618163,0.552255,0.54064626,0.23997049,0.09412763,0.4859286,1.0198327,0.2219106,0.597892,0.9483436,0.5124717,0.093304835,0.021556487,0.28670058,-0.24183285,-0.33226162,-0.47511208,-0.029380113,793.7729,792.96704,803.8461,800.2198,801.02563,-0.08367919921875,0.04498291015625,0.98504638671875,1.614990234375,-1.65985107421875,3.90289306640625,1,1.0,1.0,1.0,1.0,40.00
2020-04-08 10:36:48.736,0.386573,0.2682817,0.090697475,0.31169915,0.040852237,0.12631863,-0.10259034,0.37690803,1.0581979,0.2995004,0.37290746,0.9825656,0.5873113,0.17864175,-0.13089696,0.44333923,-0.30838418,-0.31754154,-0.47682315,0.0027287223,812.3077,807.0696,806.6667,827.2161,782.8938,-0.09283447265625,0.03497314453125,0.9705810546875,1.652374267578125,0.605621337890625,4.523468017578125,1,1.0,1.0,1.0,1.0,40.00
2020-04-08 10:36:49.736,0.6284183,-0.06785258,0.046488017,0.6414415,0.27075604,-0.046077766,-0.17357408,0.5601063,0.98708594,0.24208158,0.4711884,1.142453,0.4391175,0.076708145,-0.18408595,0.5065815,-0.25825065,-0.27544168,-0.4686158,-0.065170914,797.3993,792.96704,806.6667,807.8755,823.9927,-0.09979248046875,0.02850341796875,0.97650146484375,1.495361328125,1.07666015625,4.4561767578125,1,1.0,1.0,1.0,1.0,40.00
2020-04-08 10:36:50.738,0.6828586,-0.087507054,0.05031042,0.78702724,0.42267138,0.056510348,0.011241025,0.5497967,0.80032235,0.15167986,0.2637066,1.2379259,0.22434196,-0.05563953,-0.049202275,0.3806278,-0.3106044,-0.45620254,-0.55671775,-0.1323914,800.6227,796.1905,802.6374,819.9634,729.304,-0.0965576171875,0.03533935546875,0.9810791015625,0.994415283203125,1.024322509765625,4.583282470703125,1,1.0,1.0,1.0,1.0,40.00
2020-04-08 10:36:51.745,0.8731905,0.17136046,0.20069033,0.778202,0.5228982,-0.05829981,-0.05312559,0.54057443,0.7554873,0.34265804,0.19843888,1.2450507,0.41828933,0.0100995675,-0.018185496,0.4579461,-0.109364524,-0.364489,-0.41073307,0.050654653,819.5604,803.44324,809.0842,813.5165,790.14655,-0.10040283203125,0.03173828125,0.97027587890625,1.472930908203125,2.115936279296875,4.089813232421875,1,1.0,1.0,1.0,1.0,40.00
2020-04-08 10:36:52.762,1.0414205,0.16692667,0.5449752,0.7045145,0.5503268,-0.057706017,0.19573489,0.56586957,0.776449,0.37624198,0.39342538,1.0543771,0.3881138,-0.10627932,-0.046512946,0.3129512,-0.22875345,-0.34172812,-0.4941357,-0.05567564,826.0073,803.44324,799.81683,832.4542,838.0952,-0.0943603515625,0.02838134765625,0.97552490234375,2.011260986328125,1.054229736328125,4.747772216796875,1,1.0,1.0,1.0,1.0,40.00
2020-04-08 10:36:53.776,0.8776035,0.08479544,0.50167036,0.6457091,0.48247963,-0.004910587,0.1447345,0.62539834,0.965925,0.13204955,0.35052466,1.1345357,0.32135686,-0.053752605,-0.16824658,0.39344037,-0.2598602,-0.38900933,-0.33721295,-0.060931392,807.8755,805.05493,793.7729,801.02563,854.61536,-0.1077880859375,0.02557373046875,0.97979736328125,2.811279296875,0.4486083984375,4.508514404296875,1,1.0,1.0,1.0,1.0,40.00
2020-04-08 10:36:54.777,0.86900836,-0.04901107,0.022189872,0.92093676,0.5130377,-0.31697148,0.0117124235,0.6401063,0.9246592,0.115428805,0.44297165,1.1819677,0.35746303,0.030796675,-0.09616938,0.5140434,-0.18862252,-0.4101107,-0.40152052,-0.026364366,798.60803,798.60803,794.9817,794.9817,835.2747,-0.09466552734375,0.02740478515625,0.97662353515625,1.517791748046875,0.657958984375,5.48797607421875,1,1.0,1.0,1.0,1.0,40.00
2020-04-08 10:36:55.785,0.8917665,0.078905016,-0.14097336,1.0789624,0.54074836,-0.10094472,-0.10209674,0.65994763,0.9202235,0.34107345,0.42083284,1.2676567,0.44578844,0.118285045,-0.054491676,0.5105807,-0.1631825,-0.46999687,-0.57609475,-0.03020065,807.8755,817.5458,807.0696,811.0989,921.50183,-0.10125732421875,0.03076171875,0.973388671875,2.40753173828125,1.173858642578125,4.209442138671875,1,1.0,1.0,1.0,1.0,40.00
2020-04-08 10:36:56.796,0.6654904,0.5370625,0.07595426,1.054314,0.6048814,0.09654452,-0.027776795,0.59643704,1.2853098,0.30536208,0.23348022,1.2665328,0.6106049,0.19838367,0.016538428,0.5155838,-0.16334859,-0.35238108,-0.5305103,-0.026060127,815.9341,803.44324,795.38464,809.89014,767.1795,-0.10101318359375,0.02618408203125,0.978271484375,2.22808837890625,-0.022430419921875,3.24493408203125,1,1.0,1.0,1.0,1.0,40.00
2020-04-08 10:36:57.799,0.6847545,0.29965538,0.04969227,0.6891527,0.4614151,-0.03892663,0.06291738,0.29460666,1.1387081,0.31098136,0.26497215,1.0144098,0.48431885,-0.081053674,-0.06780345,0.506812,-0.14330842,-0.42959493,-0.5980827,0.008912785,805.8608,800.6227,794.57874,809.4872,817.9487,-0.09185791015625,0.03680419921875,0.9830322265625,1.2860107421875,0.9869384765625,4.254302978515625,1,1.0,1.0,1.0,1.0,40.00
2020-04-08 10:36:58.800,0.97964686,-0.1487023,0.2065156,0.7687345,0.55503774,-0.12099015,0.03634904,0.49932957,1.0277779,0.25086197,0.29377455,1.1515298,0.3285838,0.062055945,-0.045392174,0.58404964,-0.0784856,-0.46338302,-0.53936946,-0.22525014,777.6557,796.1905,803.44324,801.4286,796.99634,-0.10736083984375,0.04345703125,0.98431396484375,1.62994384765625,-0.560760498046875,3.431854248046875,1,1.0,1.0,1.0,1.0,40.00
2020-04-08 10:36:59.821,0.8064731,-0.32758388,0.17279333,0.50818735,0.53561866,-0.07465584,-0.1796293,0.36853468,1.0592179,0.21185914,0.0996983,1.1728857,0.6341608,0.13041049,0.006560564,0.65699184,-0.018257882,-0.45447594,-0.44494778,-0.060665946,802.6374,793.7729,798.20514,803.8461,755.09155,-0.12335205078125,0.029296875,0.962890625,1.562652587890625,0.6280517578125,5.420684814453125,1,1.0,1.0,1.0,1.0,40.00
2020-04-08 10:37:00.829,0.50173765,0.068919174,0.016173773,0.24682526,0.5736227,-0.114053525,-0.27189654,0.6541843,1.1216078,0.14354835,0.20748693,1.1512501,0.46761367,0.10462201,-0.003929989,0.61028916,-0.05108483,-0.28143573,-0.30352554,0.094045594,793.36993,794.9817,808.68134,803.44324,820.3663,-0.11090087890625,0.03326416015625,0.975341796875,1.71966552734375,0.40374755859375,4.224395751953125,1,1.0,1.0,1.0,1.0,40.00
2020-04-08 10:37:01.838,0.7640516,0.16317497,0.12799299,0.6770497,0.50521374,-0.04173603,0.0026564458,0.7088035,1.3148657,0.30678642,0.30547795,1.2189131,0.55347085,-0.014623916,-0.20847727,0.52298653,-0.17327043,-0.18098249,-0.49253762,-0.043961488,786.9231,801.02563,803.8461,785.7143,855.82416,-0.11602783203125,0.02667236328125,0.97332763671875,0.7476806640625,-0.186920166015625,4.23187255859375,1,1.0,1.0,1.0,1.0,40.00
2020-04-08 10:37:02.851,0.80852896,0.19410348,0.14575297,0.8303113,0.75150186,0.0643221,0.04990342,0.7401768,1.3010331,0.30516487,0.28384703,1.1104517,0.34763584,-0.13757892,-0.07701657,0.42726713,-0.13057838,-0.2809142,-0.37359124,0.021150215,755.89746,799.011,801.02563,780.4762,743.8095,-0.10223388671875,0.03045654296875,0.98187255859375,1.846771240234375,-0.6280517578125,3.835601806640625,1,1.0,1.0,1.0,1.0,40.00
2020-04-08 10:37:03.858,0.4987736,0.39281556,-0.15755466,0.45006126,0.64084136,0.018512942,-0.4032997,0.7004553,1.1082582,0.37737685,0.26281112,1.1781437,0.27992463,-0.019491535,-0.11947176,0.3832349,0.051188163,-0.2072402,-0.43277502,0.0013543513,787.326,794.17584,791.75824,780.07324,772.8205,-0.10333251953125,0.01910400390625,0.97955322265625,2.325286865234375,1.517791748046875,3.93280029296875,1,1.0,1.0,1.0,1.0,40.00
2020-04-08 10:37:04.867,0.29142356,0.005756229,-0.03842894,0.49386653,0.038951382,-0.4059571,-0.17269424,0.48908386,0.6231935,0.29340696,0.29313678,1.0201277,0.29079053,-0.12714133,-0.107941,0.5292349,-0.055320244,-0.24341954,-0.77590066,-0.047181413,776.8498,792.5641,796.1905,774.83514,666.4469,-0.09832763671875,0.02874755859375,0.983642578125,1.607513427734375,1.173858642578125,4.687957763671875,1,1.0,1.0,1.0,1.0,40.00
2020-04-08 10:37:05.879,0.68992585,-0.06673033,0.08230414,0.5410545,0.25313902,-0.47891018,0.10863864,0.5919826,0.8418074,0.17871943,0.2779261,1.0647365,0.3062882,-0.2137484,-0.047592837,0.40855733,-0.19498132,-0.26650926,-0.53260773,-0.026530186,781.28204,799.011,800.2198,788.1319,786.9231,-0.09088134765625,0.030517578125,0.9722900390625,2.115936279296875,0.306549072265625,4.42626953125,1,1.0,1.0,1.0,1.0,40.00
2020-04-08 10:37:06.884,0.6850481,0.2574906,0.06448646,0.5520527,0.48695883,-0.10836716,0.11075496,0.6210354,1.0243224,0.28563485,0.23128854,1.243677,0.42135125,-0.011574257,-0.18905981,0.48653412,-0.12942705,-0.22138388,-0.60387117,-0.04031996,786.1172,795.38464,802.23444,790.14655,759.5238,-0.0916748046875,0.02777099609375,0.98822021484375,0.97198486328125,0.037384033203125,4.777679443359375,1,1.0,1.0,1.0,1.0,40.00
2020-04-08 10:37:07.896,0.68602157,0.19738118,0.10079024,0.31240138,0.35077414,-0.304679,-0.27010158,0.16002461,0.94063085,0.13770756,0.31468838,1.0547299,0.4951486,0.11030266,-0.05610698,0.5179751,-0.19039044,-0.37933654,-0.7065385,-0.10426313,786.9231,797.8022,790.54944,794.57874,805.8608,-0.09906005859375,0.03369140625,0.97607421875,2.056121826171875,0.904693603515625,4.127197265625,1,1.0,1.0,1.0,1.0,40.00
2020-04-08 10:37:08.922,0.70469975,0.29426825,0.26858324,0.4314373,0.7159042,-0.18451189,-0.099969946,0.39791837,1.2491884,0.26918197,0.19001074,1.0805168,0.504084,0.085273445,0.043307073,0.59503365,-0.31354743,-0.534768,-0.6063133,-0.13825236,781.685,800.2198,794.57874,807.0696,757.9121,-0.10760498046875,0.0250244140625,0.970947265625,1.667327880859375,1.614990234375,4.0374755859375,1,1.0,1.0,1.0,1.0,40.00
2020-04-08 10:37:09.932,0.8062853,0.53861445,0.37931,0.72663414,0.7636024,-0.16409764,0.06326852,0.46325326,1.312549,0.26380444,-0.045649968,1.0921757,0.53558844,-0.07858973,-0.12985349,0.5254938,-0.29316768,-0.39590296,-0.562951,-0.05388265,776.8498,804.65204,799.81683,791.75824,840.9158,-0.11407470703125,0.01702880859375,0.9759521484375,2.145843505859375,0.007476806640625,4.344024658203125,1,1.0,1.0,1.0,1.0,40.00
2020-04-08 10:37:10.932,0.57129055,0.48725224,0.19893977,0.49807742,0.35082448,0.025264319,-0.23073468,0.2846665,0.99383944,0.19797072,0.06820115,0.9521058,0.55951136,-0.18695791,-0.07255843,0.5026163,-0.22555967,-0.295006,-0.5836087,-0.11417101,782.8938,803.44324,799.011,801.8315,933.5897,-0.112548828125,0.00921630859375,0.9822998046875,1.1065673828125,0.515899658203125,4.209442138671875,1,1.0,1.0,1.0,1.0,40.00
2020-04-08 10:37:11.936,0.7652019,0.02434104,0.21333358,0.6080695,0.76565605,0.15623099,0.14877284,0.60986036,1.1238286,0.47470742,0.23608647,1.1620506,0.56651145,-0.020502998,-0.033529483,0.58012015,-0.36669144,-0.4003222,-0.6619904,0.016525265,773.22345,794.57874,805.05493,794.17584,772.8205,-0.11529541015625,0.00933837890625,0.97772216796875,1.92901611328125,0.179443359375,3.775787353515625,1,1.0,1.0,1.0,1.0,40.00
2020-04-08 10:37:12.940,0.7767225,-0.080981165,0.41671777,0.8819736,0.95068294,0.10004858,0.14717273,0.78086936,1.139227,0.43789372,0.32088578,1.3649094,0.45509782,-0.047261927,-0.09732614,0.58523774,-0.33741692,-0.37778273,-0.676502,-0.025266591,801.02563,802.6374,794.17584,809.4872,719.6337,-0.1370849609375,0.01904296875,0.99560546875,1.98883056640625,0.299072265625,4.88983154296875,1,1.0,1.0,1.0,1.0,40.00
2020-04-08 10:37:13.964,0.828342,0.27417755,0.3023973,1.0973511,0.7440572,0.2117717,-0.05854289,0.6074111,1.1437216,0.14900005,0.32932842,1.3138356,0.56316257,0.0069678887,-0.12308121,0.7116754,0.14559242,-0.292349,-0.5317029,0.1929164,780.4762,798.60803,790.9524,796.5934,779.67035,-0.1070556640625,0.01806640625,0.97235107421875,1.951446533203125,-1.42059326171875,5.061798095703125,1,1.0,1.0,1.0,1.0,40.00
2020-04-08 10:37:14.974,0.8453849,0.27439645,0.10752496,1.0090168,0.6368855,0.04510081,0.029006016,0.47702682,0.94185156,0.31893915,0.1782674,1.107137,0.5904755,-0.10198782,-0.022612471,0.7084466,0.0991463,-0.19660784,-0.6647699,0.0062326393,799.81683,794.17584,794.9817,798.20514,761.13556,-0.1131591796875,0.01226806640625,0.98760986328125,1.07666015625,2.519683837890625,3.865509033203125,1,1.0,1.0,1.0,1.0,40.00
2020-04-08 10:37:15.982,0.79693717,0.15690143,-0.09003622,0.81542623,0.5767921,-0.17099471,0.1110951,0.570583,1.0386304,0.18037827,0.23102514,1.1245799,0.5369305,-0.07028296,0.031955913,0.5743383,-0.16218852,-0.21869202,-0.5277797,-0.040773164,803.8461,803.0403,792.5641,815.5311,857.03296,-0.1136474609375,0.01470947265625,0.98175048828125,1.667327880859375,0.590667724609375,3.850555419921875,1,1.0,1.0,1.0,1.0,40.00
2020-04-08 10:37:16.994,0.7961904,0.31394577,0.1057816,0.86515385,0.5372486,-0.2402455,-0.062872544,0.6131207,0.8639122,0.4348212,0.103565924,0.6391247,0.3239203,-0.019838903,0.034320034,0.59911495,-0.2767105,-0.41859752,-0.5646022,-0.10680246,814.7253,806.6667,792.5641,817.5458,906.99634,-0.12225341796875,0.02703857421875,0.96612548828125,1.83929443359375,0.740203857421875,4.269256591796875,1,1.0,1.0,1.0,1.0,40.00
2020-04-08 10:37:17.996,0.7859961,0.1610349,0.36115804,0.79699415,0.27134225,-0.36874646,-0.040567655,0.3660792,0.9963799,0.3796926,0.058444005,1.0515314,0.22900948,-0.020296026,0.0033330054,0.6766011,-0.3084084,-0.33940724,-0.48329714,-0.05511846,813.5165,796.99634,799.011,814.3223,680.9524,-0.12408447265625,0.022705078125,0.9781494140625,2.13836669921875,1.07666015625,4.702911376953125,1,1.0,1.0,1.0,1.0,40.00
2020-04-08 10:37:19.004,0.9606732,0.30596268,0.36383018,0.8114924,0.58107126,0.03581731,0.005779835,0.5704296,1.0603232,0.48792586,0.1615369,1.0686046,0.16001609,-0.12739222,-0.16569541,0.6263228,-0.33011764,-0.33519626,-0.57642984,-0.24150456,813.5165,819.15753,801.02563,807.8755,846.1539,-0.1182861328125,0.017578125,0.97601318359375,1.906585693359375,0.231781005859375,4.508514404296875,1,1.0,1.0,1.0,1.0,40.00
2020-04-08 10:37:20.029,0.7274015,0.11564007,0.37839743,0.8425254,0.50574917,0.061840832,-0.013036198,0.61541265,1.0710646,0.48980224,0.1791341,1.2593503,0.19391379,-0.11421359,-0.17492042,0.6060898,-0.2586219,-0.39273745,-0.4628933,-0.17579706,815.5311,813.91943,809.0842,800.2198,831.6484,-0.1181640625,0.02142333984375,0.96868896484375,1.57012939453125,0.2093505859375,4.478607177734375,1,1.0,1.0,1.0,1.0,35.00
2020-04-08 10:37:21.032,0.5700727,0.1965078,0.25667706,0.885855,0.33401498,0.05205953,-0.02933416,0.60222286,1.0046779,0.33127037,0.14492197,1.2327937,0.36822343,-0.09070226,0.019842254,0.61036956,-0.0531271,-0.39702857,-0.47943714,0.04646047,824.7985,809.89014,807.8755,819.15753,851.79486,-0.1480712890625,0.01092529296875,0.9705810546875,1.607513427734375,0.695343017578125,1.622467041015625,1,1.0,1.0,1.0,1.0,35.00
2020-04-08 10:37:22.044,0.6762515,0.20326544,0.23762019,0.8475338,0.54808885,0.004637312,-0.06462283,0.7008836,1.0740527,0.29971626,0.21327195,0.9888588,0.42540613,2.7200114E-4,-0.17680658,0.5329734,0.01921971,-0.29943427,-0.45612,0.09377191,826.8132,805.05493,811.9048,828.4249,809.0842,-0.1522216796875,0.00665283203125,0.96197509765625,2.43743896484375,-1.48040771484375,3.768310546875,1,1.0,1.0,1.0,1.0,35.00
2020-04-08 10:37:23.055,0.5788428,-0.20090464,0.41948104,1.0388707,0.58153594,-0.030780524,0.0868857,0.62237704,1.2545534,0.12640928,0.25731808,0.93893874,0.68933016,0.02767038,-0.2139637,0.40764308,0.16620724,-0.42221025,-0.4081565,0.14589742,815.12823,802.6374,803.44324,809.0842,800.2198,-0.1243896484375,0.01116943359375,0.9771728515625,1.532745361328125,-0.665435791015625,4.306640625,1,1.0,1.0,1.0,1.0,35.00
2020-04-08 10:37:24.069,0.57460034,0.0630893,0.28311637,0.65922624,0.6412274,0.11115927,0.11537748,0.4432849,1.224992,0.15406495,0.3603456,0.95117503,0.5723845,0.053229794,-0.09919543,0.46416038,0.14835197,-0.29426065,-0.5385276,0.13791782,812.3077,811.0989,803.44324,806.26373,829.6337,-0.12261962890625,0.018310546875,0.9683837890625,2.0635986328125,0.7476806640625,3.1103515625,1,1.0,1.0,1.0,1.0,35.00
2020-04-08 10:37:25.076,0.5839827,0.050226595,0.24619539,0.62647694,0.2308846,-0.07749503,0.07731502,0.15409394,0.8715958,0.15394135,0.3882967,0.95658165,0.3387398,-0.09013233,-0.23875366,0.5406421,-0.23053196,-0.37695017,-0.5425786,-0.04077292,794.9817,798.60803,794.57874,802.23444,815.5311,-0.12969970703125,0.0135498046875,0.97186279296875,2.609405517578125,0.22430419921875,5.076751708984375,1,1.0,1.0,1.0,1.0,35.00
2020-04-08 10:37:26.090,0.68035847,-0.06404546,0.33887345,0.81029844,0.4246235,-0.079385,-0.056594886,0.56400585,1.1645176,0.27706334,0.16153988,1.1020449,0.4748672,-0.08151046,-0.33746716,0.5463647,-0.42088047,-0.51687896,-0.6219624,-0.08413011,808.2784,807.0696,791.75824,811.0989,762.3443,-0.1131591796875,0.0047607421875,0.9903564453125,1.547698974609375,0.650482177734375,3.96270751953125,1,1.0,1.0,1.0,1.0,35.00
2020-04-08 10:37:27.090,0.6025037,0.139757,0.36764288,0.6252781,0.58631164,-0.06580927,0.025870554,0.6667206,1.1532227,0.34221968,0.20996372,1.1569716,0.60207886,0.11225146,-0.18177652,0.5742193,-0.27204388,-0.50498366,-0.54393685,-0.22428538,805.4579,805.4579,798.60803,795.38464,788.5348,-0.12164306640625,0.00152587890625,0.98046875,1.27105712890625,1.069183349609375,3.90289306640625,1,1.0,1.0,1.0,1.0,35.00
2020-04-08 10:37:28.093,0.6363001,0.1532274,0.34653717,0.6139035,0.38294938,0.1501723,-0.013905137,0.043341897,0.7893801,0.22177784,0.27070495,0.98842937,0.3594395,-0.003716688,0.022452125,0.42741197,-0.24588782,-0.35014597,-0.49864948,-0.1391458,805.4579,803.44324,802.6374,809.4872,821.978,-0.1318359375,0.01409912109375,0.974853515625,1.79443359375,0.6280517578125,3.611297607421875,1,1.0,1.0,1.0,1.0,35.00
2020-04-08 10:37:29.097,0.4845502,0.047019213,0.070021555,0.6827863,0.22324313,-0.19982147,0.23502412,0.2494906,0.8080693,0.10541974,0.46888277,0.8546522,0.23935242,-0.10440032,0.01366965,0.47842354,-0.12463831,-0.22327751,-0.5446121,-0.06434365,797.8022,800.2198,797.3993,796.1905,833.2601,-0.12371826171875,0.011474609375,0.981689453125,1.338348388671875,0.231781005859375,4.26177978515625,1,1.0,1.0,1.0,1.0,35.00
2020-04-08 10:37:30.103,0.6546108,0.05008014,0.10769709,0.74162185,0.49592644,-0.279492,-0.021850657,0.509369,0.8300756,0.0211048,0.4544755,1.0006579,0.24118808,-0.02414343,-0.014117561,0.50881016,-0.14343776,-0.21430759,-0.47165057,0.049973223,803.8461,813.1135,803.8461,809.89014,884.0293,-0.12872314453125,0.01129150390625,0.97576904296875,1.06170654296875,0.85235595703125,4.314117431640625,1,1.0,1.0,1.0,1.0,40.00
2020-04-08 10:37:31.114,0.8826613,0.1395125,0.012253241,0.7052958,0.33924505,-0.16085355,-0.1983611,0.4907767,0.77657235,-0.09984352,0.020116717,1.1394563,0.16524315,-0.086902,-0.070599996,0.54139715,-0.15349917,-0.29529396,-0.54021657,0.04593299,788.5348,795.78754,796.5934,772.8205,782.0879,-0.1214599609375,0.00262451171875,0.98486328125,1.846771240234375,0.351409912109375,2.4224853515625,1,1.0,1.0,1.0,1.0,40.00
2020-04-08 10:37:32.116,1.0293838,0.32250455,0.15091355,0.744377,0.7390045,0.15327126,-0.075771965,0.61920834,0.99912804,0.2608391,0.04159802,1.1629006,0.36315894,0.19629958,-0.16805536,0.43186846,0.001978,-0.2606932,-0.50400466,-0.05054966,800.2198,799.011,799.41394,793.7729,778.46155,-0.14208984375,0.01190185546875,0.97760009765625,2.930908203125,0.67291259765625,4.8748779296875,1,1.0,1.0,1.0,1.0,40.00
2020-04-08 10:37:33.117,0.9501192,0.108681574,0.35231286,0.40931317,0.53988504,0.064291984,-0.073396295,0.4891031,0.9914926,0.25069255,0.06853262,1.1374402,0.46127802,0.13425416,-0.06456111,0.4285255,0.20637876,-0.16562691,-0.29389995,0.28092027,777.6557,789.7436,802.23444,782.8938,698.68134,-0.09808349609375,0.01300048828125,0.9617919921875,2.474822998046875,-1.1663818359375,3.84307861328125,1,1.0,1.0,1.0,1.0,40.00
2020-04-08 10:37:34.117,0.9743297,-0.008246992,0.37960762,0.35021028,0.36628798,-0.08212282,0.19689721,0.493624,0.7014702,0.22184825,0.09316776,0.9160422,0.5717045,0.01176239,-0.072633356,0.58760697,0.27384225,-0.1436121,-0.24579686,0.3351029,801.4286,801.8315,795.38464,804.65204,759.12085,-0.1060791015625,0.02197265625,0.96881103515625,2.699127197265625,3.8580322265625,6.048736572265625,1,1.0,1.0,1.0,1.0,40.00
2020-04-08 10:37:35.132,0.8735095,0.14984564,0.1833132,0.8796528,0.520299,-0.1128332,0.086975485,0.57894266,0.98458153,0.2835233,0.40341634,1.2428372,0.5410151,-0.03521023,-0.14468625,0.6126179,0.22630616,-0.25266233,-0.60994655,0.17480263,740.18317,795.38464,799.011,782.49084,915.05493,-0.062255859375,0.03631591796875,1.0050048828125,3.805694580078125,-0.620574951171875,6.7889404296875,1,1.0,1.0,1.0,1.0,40.00
2020-04-08 10:37:36.142,1.111396,0.31987217,0.48455086,1.3436671,0.6268466,0.008818975,0.082438275,0.68806297,1.2825912,0.2202137,0.54991436,1.2445714,0.7884222,-0.09474026,0.018775541,0.6476856,0.25881717,-0.4030841,-0.4975538,0.35567254,789.34064,798.20514,797.8022,807.8755,794.57874,-0.07330322265625,0.00482177734375,0.95989990234375,2.79632568359375,1.547698974609375,3.985137939453125,1,1.0,1.0,1.0,1.0,40.00
2020-04-08 10:37:37.159,0.91480786,0.12926312,0.22588007,1.1738689,0.41522935,-0.17509523,0.06509759,0.5078033,1.3877761,0.106141,0.49214098,1.0679902,0.69408864,-0.010215809,-0.0065137236,0.6435871,0.19028664,-0.44869515,-0.493054,0.26067895,797.3993,812.71063,795.78754,782.8938,794.9817,-0.071533203125,0.02301025390625,0.9825439453125,2.28790283203125,3.75335693359375,5.203857421875,1,1.0,1.0,1.0,1.0,40.00
2020-04-08 10:37:38.177,0.44082755,0.24229163,0.053399757,0.69204676,0.51036614,-0.27177578,0.10510295,0.7283248,1.3045586,-0.07006851,0.1724844,1.0474262,0.5465926,-0.048161812,-0.120051205,0.53321064,0.22568125,-0.26577267,-0.60366064,0.14347284,749.0476,772.8205,791.75824,784.90845,776.8498,-0.09735107421875,0.0511474609375,0.995361328125,3.416900634765625,6.9085693359375,4.8150634765625,1,1.0,1.0,1.0,1.0,40.00
2020-04-08 10:37:39.193,1.2940704,0.6965214,0.5927959,1.1344892,0.7454053,-0.09398514,0.05273565,0.72387075,1.0040815,0.094884224,0.3824518,1.0583944,0.5256288,0.13883144,-0.071123324,0.6256882,0.28376326,-0.18064706,-0.4580282,0.32337648,754.2857,794.17584,809.89014,796.99634,763.1502,-0.08258056640625,0.0538330078125,0.99249267578125,2.714080810546875,-4.508514404296875,5.51788330078125,1,1.0,1.0,1.0,1.0,40.00
2020-04-08 10:37:40.198,1.1559691,0.42632952,0.5704363,0.95171374,0.59617215,-0.041955505,-0.09887914,0.4477,1.1255805,-0.0375278,0.34091476,1.1450307,0.65104717,0.11491455,-0.052854132,0.73150545,0.18261877,-0.28367338,-0.4487196,0.47686145,768.3883,792.96704,801.8315,786.9231,834.87177,-0.08648681640625,0.031005859375,0.97802734375,1.173858642578125,0.657958984375,4.747772216796875,1,1.0,1.0,1.0,1.0,40.00
